% brunhes.m
% Meyadnier and Valet, 1993.
% Paleointensity curve 
% MV93 is array with age (Ma) and vadm (x10^22 am)

fprintf('MV93 is age,vadm array from Meyadnier and Valet, 1993\n');
fprintf(' age is in Ma\n\n')
MV93=[
     0.01021,        8.040;
     0.01021,        7.953;
     0.01196,        7.681;
     0.01267,        7.544;
     0.01337,        8.140;
     0.01372,        8.772;
     0.01513,        9.219;
     0.01619,        9.392;
     0.01724,        8.747;
     0.01795,        7.594;
     0.01900,        7.519;
     0.02815,        6.453;
     0.02815,        7.433;
     0.02921,        7.631;
     0.02991,        8.313;
     0.03097,        9.169;
     0.03202,        6.874;
     0.03343,        7.060;
     0.03449,        7.247;
     0.03554,        7.060;
     0.03695,        6.713;
     0.03801,        6.329;
     0.03941,        5.510;
     0.04082,        4.431;
     0.04223,        3.687;
     0.04364,        3.662;
     0.04610,        4.245;
     0.04821,        5.101;
     0.04962,        5.833;
     0.05208,        6.130;
     0.05384,        6.316;
     0.05595,        6.837;
     0.05806,        7.346;
     0.06018,        7.755;
     0.06229,        7.842;
     0.06440,        7.805;
     0.06545,        7.457;
     0.06721,        7.048;
     0.06792,        7.234;
     0.06933,        8.350;
     0.07003,        8.946;
     0.07144,        7.519;
     0.07355,        5.684;
     0.07460,        4.505;
     0.07601,        3.873;
     0.07707,        3.811;
     0.07777,        4.307;
     0.07883,        5.163;
     0.08023,        5.622;
     0.08164,        5.709;
     0.08270,        6.353;
     0.08446,        5.597;
     0.08551,        5.510;
     0.08622,        5.212;
     0.08692,        4.741;
     0.08868,        4.766;
     0.09009,        4.071;
     0.09044,        3.513;
     0.09255,        3.625;
     0.09326,        3.922;
     0.09713,        4.109;
     0.09889,        4.419;
     0.10029,        4.642;
     0.10276,        4.295;
     0.10381,        4.245;
     0.10557,        4.443;
     0.10804,        4.592;
     0.10909,        4.406;
     0.11120,        4.282;
     0.11226,        4.431;
     0.11331,        5.460;
     0.11437,        4.369;
     0.11543,        4.344;
     0.11754,        4.233;
     0.11859,        3.947;
     0.12035,        3.426;
     0.12106,        3.650;
     0.12141,        3.786;
     0.12493,        3.761;
     0.12528,        3.650;
     0.12739,        3.538;
     0.12880,        4.282;
     0.13056,        4.443;
     0.13196,        5.051;
     0.13443,        4.816;
     0.13619,        5.064;
     0.13760,        5.535;
     0.13935,        5.820;
     0.14111,        5.572;
     0.14182,        5.336;
     0.14252,        4.977;
     0.14499,        4.915;
     0.14674,        4.753;
     0.14850,        4.704;
     0.15026,        4.555;
     0.15308,        4.592;
     0.15519,        4.617;
     0.15589,        4.605;
     0.15695,        4.270;
     0.15801,        3.898;
     0.16012,        3.774;
     0.16328,        3.761;
     0.16610,        3.836;
     0.16786,        4.022;
     0.16927,        4.133;
     0.17208,        4.307;
     0.17314,        4.629;
     0.17595,        5.101;
     0.17736,        4.977;
     0.17947,        4.654;
     0.18088,        4.865;
     0.18405,        4.865;
     0.18581,        3.637;
     0.18757,        4.443;
     0.18792,        4.704;
     0.18968,        4.406;
     0.19038,        3.960;
     0.19249,        3.947;
     0.19460,        3.712;
     0.19460,        3.464;
     0.19496,        3.625;
     0.19566,        3.029;
     0.19707,        2.260;
     0.19812,        2.819;
     0.19883,        3.414;
     0.20059,        3.947;
     0.20129,        4.133;
     0.20270,        3.166;
     0.20481,        2.757;
     0.20692,        2.992;
     0.20903,        3.240;
     0.21220,        3.216;
     0.21537,        3.253;
     0.21748,        3.712;
     0.21889,        4.195;
     0.22029,        4.456;
     0.22205,        5.163;
     0.22346,        6.254;
     0.22452,        6.688;
     0.22557,        6.329;
     0.22768,        6.180;
     0.23015,        5.969;
     0.23120,        5.820;
     0.23226,        4.915;
     0.23367,        4.146;
     0.23543,        3.836;
     0.23718,        3.650;
     0.23824,        3.364;
     0.23965,        3.216;
     0.24106,        3.439;
     0.24246,        4.009;
     0.24352,        4.543;
     0.24528,        5.175;
     0.24598,        6.019;
     0.24774,        6.465;
     0.24950,        6.205;
     0.25091,        5.584;
     0.25196,        4.840;
     0.25372,        4.158;
     0.25478,        3.947;
     0.25619,        4.171;
     0.25900,        4.853;
     0.26006,        4.468;
     0.26111,        3.997;
     0.26358,        3.885;
     0.26569,        3.836;
     0.26674,        4.009;
     0.26815,        4.344;
     0.26921,        4.443;
     0.27026,        4.319;
     0.27202,        4.233;
     0.27378,        4.357;
     0.27449,        4.419;
     0.27660,        4.406;
     0.27695,        4.344;
     0.27836,        3.997;
     0.27977,        3.526;
     0.28047,        3.240;
     0.28293,        2.918;
     0.28364,        2.645;
     0.28434,        2.943;
     0.28540,        3.265;
     0.28645,        3.439;
     0.28751,        3.699;
     0.28997,        3.935;
     0.29103,        4.071;
     0.29279,        4.133;
     0.29525,        4.233;
     0.29630,        4.245;
     0.29736,        4.406;
     0.29877,        4.567;
     0.30018,        4.667;
     0.30158,        5.002;
     0.30370,        5.684;
     0.30440,        5.833;
     0.30616,        5.448;
     0.30792,        5.163;
     0.30897,        4.617;
     0.31144,        3.774;
     0.31320,        3.625;
     0.31531,        3.823;
     0.31601,        3.848;
     0.31742,        3.761;
     0.31812,        3.699;
     0.31918,        3.898;
     0.32023,        4.220;
     0.32094,        4.704;
     0.32199,        4.419;
     0.32411,        4.816;
     0.32446,        4.443;
     0.32587,        4.146;
     0.32727,        3.960;
     0.32868,        4.059;
     0.32868,        4.295;
     0.32974,        4.716;
     0.32974,        4.915;
     0.33150,        4.989;
     0.33220,        5.014;
     0.33501,        5.064;
     0.33607,        5.597;
     0.33748,        6.068;
     0.33853,        6.378;
     0.34100,        6.775;
     0.34170,        6.887;
     0.34346,        6.081;
     0.34557,        5.398;
     0.34698,        5.051;
     0.34944,        5.932;
     0.35050,        7.048;
     0.35191,        7.681;
     0.35437,        7.643;
     0.35437,        7.532;
     0.35613,        7.569;
     0.35859,        7.619;
     0.36035,        7.259;
     0.36211,        6.639;
     0.36387,        6.093;
     0.36669,        5.671;
     0.36774,        5.696;
     0.36880,        6.019;
     0.37126,        6.316;
     0.37302,        6.912;
     0.37478,        7.296;
     0.37619,        7.284;
     0.37795,        7.122;
     0.37900,        6.998;
     0.37971,        6.837;
     0.37971,        6.788;
     0.38041,        6.639;
     0.38076,        6.589;
     0.38393,        6.577;
     0.38393,        6.391;
     0.38674,        5.870;
     0.38886,        5.349;
     0.39026,        5.064;
     0.39202,        4.890;
     0.39343,        4.878;
     0.39519,        4.964;
     0.39589,        5.051;
     0.39695,        4.977;
     0.39977,        4.493;
     0.40082,        3.972;
     0.40328,        3.712;
     0.40434,        3.637;
     0.40575,        3.712;
     0.40610,        3.885;
     0.40680,        4.071;
     0.40821,        4.481;
     0.41243,        4.208;
     0.41349,        4.047;
     0.41419,        2.757;
     0.41666,        3.116;
     0.41701,        3.414;
     0.41736,        3.823;
     0.41912,        4.183;
     0.41982,        4.753;
     0.42053,        5.349;
     0.42123,        5.845;
     0.42123,        6.155;
     0.42123,        6.353;
     0.42370,        6.750;
     0.42475,        7.023;
     0.42581,        6.688;
     0.42581,        7.284;
     0.42651,        8.090;
     0.42827,        8.586;
     0.42827,        9.095;
     0.42897,       10.645;
     0.42968,        9.454;
     0.43038,       10.719;
     0.43038,        9.330;
     0.43144,        9.839;
     0.43214,        9.330;
     0.43249,        7.333;
     0.43496,        7.792;
     0.43531,        6.775;
     0.43601,        6.006;
     0.43883,        5.498;
     0.43953,        6.279;
     0.44164,        7.023;
     0.44375,        7.135;
     0.44551,        6.167;
     0.44798,        4.443;
     0.44938,        3.612;
     0.45255,        3.600;
     0.45290,        3.885;
     0.45466,        4.493;
     0.45713,        5.014;
     0.45818,        5.287;
     0.46065,        5.498;
     0.46205,        5.572;
     0.46487,        5.448;
     0.46592,        4.443;
     0.46804,        3.253;
     0.46944,        2.781;
     0.47296,        3.017;
     0.47331,        3.402;
     0.47437,        3.823;
     0.47472,        4.381;
     0.47543,        4.195;
     0.47578,        3.935;
     0.47683,        3.811;
     0.47718,        4.629;
     0.47824,        5.225;
     0.48000,        4.146;
     0.48141,        4.059;
     0.48176,        3.947;
     0.48246,        3.798;
     0.48317,        3.699;
     0.48387,        3.538;
     0.48563,        3.513;
     0.48633,        3.426;
     0.48739,        3.042;
     0.48880,        2.905;
     0.49021,        2.695;
     0.49126,        2.484;
     0.49267,        2.273;
     0.49372,        2.124;
     0.49443,        1.963;
     0.49619,        2.037;
     0.49900,        2.124;
     0.50006,        2.248;
     0.50006,        2.447;
     0.50111,        2.558;
     0.50182,        2.695;
     0.50323,        2.868;
     0.50428,        3.067;
     0.50534,        3.575;
     0.50639,        4.096;
     0.50710,        4.605;
     0.50921,        4.803;
     0.50956,        4.691;
     0.51238,        4.617;
     0.51413,        3.997;
     0.51519,        3.278;
     0.51519,        2.794;
     0.51695,        2.571;
     0.51871,        2.843;
     0.52258,        1.901;
     0.52469,        2.087;
     0.52821,        2.236;
     0.53032,        2.347;
     0.53067,        2.707;
     0.53208,        3.377;
     0.53279,        4.071;
     0.53349,        4.233;
     0.53525,        3.439;
     0.53666,        3.464;
     0.53771,        3.972;
     0.53877,        4.195;
     0.54018,        3.935;
     0.54088,        3.600;
     0.54194,        3.228;
     0.54405,        3.588;
     0.54545,        3.786;
     0.54651,        4.096;
     0.54862,        3.389;
     0.54897,        2.620;
     0.55003,        2.198;
     0.55144,        1.988;
     0.55320,        1.826;
     0.55531,        1.628;
     0.55707,        1.764;
     0.55812,        2.012;
     0.55812,        3.340;
     0.56622,        3.451;
     0.56974,        3.265;
     0.57607,        3.922;
     0.58381,        3.228;
     0.59085,        3.860;
     0.59367,        3.513;
     0.59648,        2.881;
     0.60176,        2.967;
     0.60739,        4.084;
     0.60880,        2.484;
     0.60985,        4.146;
     0.61126,        4.964;
     0.61267,        4.319;
     0.61302,        5.188;
     0.61513,        5.200;
     0.61548,        4.679;
     0.61760,        4.530;
     0.61971,        4.828;
     0.62147,        4.096;
     0.62252,        5.126;
     0.62393,        6.862;
     0.62569,        7.271;
     0.62604,        6.676;
     0.62604,        7.681;
     0.62745,        7.991;
     0.62850,        8.660;
     0.62886,        9.392;
     0.63167,        9.926;
     0.63378,        9.926;
     0.63484,        9.541;
     0.63589,        9.095;
     0.63730,        8.710;
     0.63801,        7.631;
     0.63906,        7.656;
     0.63941,        9.479;
     0.64117,       10.459;
     0.64328,       10.608;
     0.64504,        8.871;
     0.64504,        9.305;
     0.64575,        8.350;
     0.64786,       10.633;
     0.64962,        9.963;
     0.65032,        9.008;
     0.65138,        8.462;
     0.65243,        8.648;
     0.65384,        9.157;
     0.65525,        9.268;
     0.65560,        9.144;
     0.65736,        8.995;
     0.65877,        5.795;
     0.65912,        8.288;
     0.66053,        4.828;
     0.66264,        8.971;
     0.66264,        7.792;
     0.66440,        6.664;
     0.66616,        5.820;
     0.66686,        5.225;
     0.66721,        5.014;
     0.67003,        5.200;
     0.67214,        4.741;
     0.67460,        4.319;
     0.67531,        4.220;
     0.67777,        4.381;
     0.67953,        4.679;
     0.68059,        4.766;
     0.68164,        4.654;
     0.68305,        4.307;
     0.68551,        4.133;
     0.68727,        4.022;
     0.68833,        3.947;
     0.69044,        3.712;
     0.69150,        3.426;
     0.69326,        3.191;
     0.69501,        3.042;
     0.69607,        2.955;
     0.69959,        3.054;
     0.70100,        3.203;
     0.70170,        3.439;
     0.70170,        3.637;
     0.70311,        4.121;
     0.70452,        4.456;
     0.70522,        4.828;
     0.70663,        5.498;
     0.70804,        6.366;
     0.70944,        7.730;
     0.71015,        8.847;
     0.71367,        9.045;
     0.71437,        9.305;
     0.71578,        8.983;
     0.71718,        8.189;
     0.71824,        7.383;
     0.71965,        8.028;
     0.72141,        8.326;
     0.72282,        8.598;
     0.72352,        7.222;
     0.72493,        6.453;
     0.72598,        6.924;
     0.72633,        6.564;
     0.72880,        7.333;
     0.72915,        6.701;
     0.73056,        8.574;
     0.73126,        9.343;
     0.73619,        7.544;
     0.73935,        8.946;
     0.74076,        9.330;
     0.74287,        9.380;
     0.74569,        9.392;
     0.74710,        9.256;
     0.74850,        9.107;
     0.75097,        9.057;
     0.75413,        9.070;
     0.75625,       10.025;
     0.75871,       10.347;
     0.75977,        9.429;
     0.76152,        8.648;
     0.76364,        8.239;
     0.76645,        7.867;
     0.76856,        7.780;
     0.77032,        7.122;
     0.77032,        6.478;
     0.77138,        5.398;
     0.77243,        4.481;
     0.77279,        4.977;
     0.77384,        4.133;
     0.77490,        2.372;
     0.77525,        0.536;
     0.77630,        1.330;
     0.77771,        1.504;
     0.77806,        2.062;
     0.77842,        1.665;
     0.77982,        2.447;
     0.78018,        2.781;
     0.78194,        2.509;
     0.78405,        2.794;
     0.78440,        2.533;
     0.78545,        0.921;
     0.78581,        1.814;
     0.78686,        0.512;
     0.78757,        0.301;
     0.78897,        0.648;
     0.79109,        1.169;
     0.79320,        1.702;
     0.79460,        1.851;
     0.79601,        1.653;
     0.79742,        1.839;
     0.79953,        2.112;
     0.80094,        2.360;
     0.80235,        2.521;
     0.80446,        2.819;
     0.80692,        3.327;
     0.80798,        3.501;
     0.80903,        3.302;
     0.80938,        2.831;
     0.81150,        2.533;
     0.81255,        2.360;
     0.81361,        2.223;
     0.81572,        2.372;
     0.81677,        2.905;
     0.81748,        3.017;
     0.81924,        2.695;
     0.82065,        2.285;
     0.82135,        1.826;
     0.82346,        1.591;
     0.82522,        2.161;
     0.82628,        2.583;
     0.82909,        2.707;
     0.83120,        2.372;
     0.83226,        2.074;
     0.83437,        2.285;
     0.83507,        2.124;
     0.83718,        1.988;
     0.83965,        2.037;
     0.84106,        2.198;
     0.84246,        2.310;
     0.84352,        2.236;
     0.84598,        2.186;
     0.84880,        2.521;
     0.85232,        3.054;
     0.85302,        3.377;
     0.85372,        3.687;
     0.85584,        4.332;
     0.85689,        4.828;
     0.85865,        4.915;
     0.86041,        4.816;
     0.86323,        4.704;
     0.86463,        4.605;
     0.86674,        4.282;
     0.86674,        3.724;
     0.86850,        3.352;
     0.87026,        3.141;
     0.87062,        2.967;
     0.87062,        2.843;
     0.87273,        2.806;
     0.87519,        2.670;
     0.87725,        3.088;
     0.87795,        3.640;
     0.87901,        4.007;
     0.87937,        4.559;
     0.88042,        4.142;
     0.88042,        3.578;
     0.88078,        3.346;
     0.88254,        3.824;
     0.88430,        3.615;
     0.88466,        3.321;
     0.88642,        3.676;
     0.88748,        4.130;
     0.88748,        4.375;
     0.88854,        4.596;
     0.88959,        4.902;
     0.89101,        5.515;
     0.89136,        6.360;
     0.89277,        7.022;
     0.89347,        6.262;
     0.89418,        6.544;
     0.89630,        7.267;
     0.89700,        6.311;
     0.89982,        5.711;
     0.90053,        5.441;
     0.90053,        6.152;
     0.90159,        6.777;
     0.90265,        6.850;
     0.90335,        5.882;
     0.90441,        6.152;
     0.90617,        7.500;
     0.90653,        7.304;
     0.90758,        6.581;
     0.90935,        6.201;
     0.91217,        6.115;
     0.91429,        5.907;
     0.91640,        5.527;
     0.91675,        5.025;
     0.91852,        4.498;
     0.92099,        4.130;
     0.92346,        4.044;
     0.92451,        4.363;
     0.92663,        3.456;
     0.92804,        2.365;
     0.92875,        2.022;
     0.93192,        1.642;
     0.93263,        1.789;
     0.93404,        2.426;
     0.93686,        1.973;
     0.93898,        2.083;
     0.94286,        1.777;
     0.94392,        2.010;
     0.94603,        2.181;
     0.94674,        2.292;
     0.94815,        2.708;
     0.94956,        3.076;
     0.95062,        2.904;
     0.95309,        2.721;
     0.95379,        3.039;
     0.95414,        3.860;
     0.95556,        4.400;
     0.95767,        3.983;
     0.95979,        3.811;
     0.96085,        4.167;
     0.96226,        4.730;
     0.96367,        5.294;
     0.96473,        5.760;
     0.96614,        5.453;
     0.96684,        4.632;
     0.96790,        3.676;
     0.96931,        3.223;
     0.97108,        3.076;
     0.97178,        2.941;
     0.97319,        3.370;
     0.97460,        3.701;
     0.97531,        4.240;
     0.97637,        4.841;
     0.97707,        5.184;
     0.97919,        4.877;
     0.98095,        3.676;
     0.98166,        2.721;
     0.98272,        2.390;
     0.98377,        1.875;
     0.98448,        0.968;
     0.98624,        0.245;
     0.98765,        0.686;
     0.98801,        0.821;
     0.98801,        1.667;
     0.98836,        1.029;
     0.98977,        2.206;
     0.99295,        1.556;
     0.99295,        1.936;
     0.99541,        2.451;
     0.99718,        2.647;
     0.99859,        2.672;
     1.00035,        2.868;
     1.00247,        2.868;
     1.00353,        2.230;
     1.00564,        1.814;
     1.00705,        2.022;
     1.00811,        2.463;
     1.01023,        2.806;
     1.01093,        2.917;
     1.01235,        2.782;
     1.01411,        2.757;
     1.01834,        2.880;
     1.02116,        2.610;
     1.02257,        2.745;
     1.02469,        3.064;
     1.02610,        3.382;
     1.02857,        3.456;
     1.02998,        3.566;
     1.03210,        3.713;
     1.03280,        3.922;
     1.03422,        4.007;
     1.03739,        3.676;
     1.03880,        3.333;
     1.04233,        3.235;
     1.04303,        2.917;
     1.04550,        2.757;
     1.04691,        3.076;
     1.04868,        3.554;
     1.05009,        3.676;
     1.05185,        3.493;
     1.05432,        3.174;
     1.05573,        3.260;
     1.05855,        3.248;
     1.05855,        3.480;
     1.06032,        4.203;
     1.06102,        4.963;
     1.06314,        4.020;
     1.06384,        3.468;
     1.06561,        2.574;
     1.06561,        1.691;
     1.06702,        1.005;
     1.06914,        0.404;
     1.06914,        0.637;
     1.06914,        1.042;
     1.06984,        0.196;
     1.07019,        1.471;
     1.07090,        1.887;
     1.07196,        1.949;
     1.07337,        2.059;
     1.07337,        2.267;
     1.07407,        2.426;
     1.07513,        2.831;
     1.07549,        3.002;
     1.07760,        1.912;
     1.07866,        2.794;
     1.07901,        3.223;
     1.07972,        3.787;
     1.08007,        3.505;
     1.08078,        4.020;
     1.08430,        3.248;
     1.08571,        4.191;
     1.08713,        3.493;
     1.08748,        3.064;
     1.08889,        2.917;
     1.09136,        2.978;
     1.09206,        3.113;
     1.09383,        3.199;
     1.09524,        3.088;
     1.09735,        2.941;
     1.10449,        2.362;
     1.10629,        2.575;
     1.10629,        2.950;
     1.10629,        3.288;
     1.10808,        3.413;
     1.11168,        3.725;
     1.11437,        3.913;
     1.11707,        4.050;
     1.11707,        4.287;
     1.12246,        4.050;
     1.12246,        3.788;
     1.12335,        3.375;
     1.12515,        2.800;
     1.12605,        3.075;
     1.12964,        2.475;
     1.13234,        2.862;
     1.13772,        3.100;
     1.13862,        3.563;
     1.14042,        3.737;
     1.14401,        2.962;
     1.14401,        2.337;
     1.14850,        2.587;
     1.15030,        2.962;
     1.15120,        3.212;
     1.15659,        3.688;
     1.16018,        3.375;
     1.16198,        3.650;
     1.16377,        4.088;
     1.16557,        4.475;
     1.16647,        3.225;
     1.16737,        2.300;
     1.16916,        4.237;
     1.17186,        1.587;
     1.17455,        1.712;
     1.17635,        1.837;
     1.17725,        2.013;
     1.17814,        2.163;
     1.18174,        1.975;
     1.18263,        1.800;
     1.18623,        1.700;
     1.19162,        1.538;
     1.19162,        1.300;
     1.19431,        0.725;
     1.19701,        0.337;
     1.20060,        0.637;
     1.20060,        0.988;
     1.20329,        1.288;
     1.20509,        1.513;
     1.20509,        1.675;
     1.20599,        1.788;
     1.20778,        1.962;
     1.21048,        2.087;
     1.21407,        2.150;
     1.22216,        1.975;
     1.22665,        1.700;
     1.23024,        1.525;
     1.23204,        1.688;
     1.23473,        2.013;
     1.23563,        2.375;
     1.23832,        2.725;
     1.24281,        3.413;
     1.24551,        2.663;
     1.24820,        2.350;
     1.25090,        2.962;
     1.25629,        3.087;
     1.25808,        3.263;
     1.25988,        3.087;
     1.26437,        2.612;
     1.26886,        2.675;
     1.27156,        3.087;
     1.27515,        4.787;
     1.27695,        4.675;
     1.28054,        3.313;
     1.28054,        3.975;
     1.28234,        3.375;
     1.28234,        4.237;
     1.28593,        4.987;
     1.28952,        4.425;
     1.29132,        5.237;
     1.29311,        4.075;
     1.29401,        4.862;
     1.29671,        3.675;
     1.29940,        4.013;
     1.29940,        4.338;
     1.30389,        4.450;
     1.30569,        5.563;
     1.30659,        5.838;
     1.31018,        4.412;
     1.31287,        3.125;
     1.31557,        3.313;
     1.31557,        3.587;
     1.31826,        3.813;
     1.32006,        4.513;
     1.32096,        5.763;
     1.32186,        5.237;
     1.32275,        6.313;
     1.32635,        6.450;
     1.33084,        6.200;
     1.33174,        6.013;
     1.33263,        5.750;
     1.33353,        5.588;
     1.33533,        5.775;
     1.34251,        5.300;
     1.34701,        5.900;
     1.35060,        5.862;
     1.35150,        5.287;
     1.35599,        2.975;
     1.35689,        4.050;
     1.36138,        2.725;
     1.36766,        2.513;
     1.36856,        2.063;
     1.37036,        1.500;
     1.37305,        1.400;
     1.37575,        1.900;
     1.37934,        1.688;
     1.38114,        2.275;
     1.38204,        1.837;
     1.38204,        2.100;
     1.38293,        2.400;
     1.38293,        2.550;
     1.38293,        2.962;
     1.38563,        3.513;
     1.38563,        3.712;
     1.38653,        3.913;
     1.39102,        4.737;
     1.39192,        4.550;
     1.39371,        2.888;
     1.39461,        2.638;
     1.39731,        3.087;
     1.39910,        3.325;
     1.40000,        5.450;
     1.40180,        5.675;
     1.40269,        6.275;
     1.40629,        5.938;
     1.40629,        5.275;
     1.40898,        4.575;
     1.41257,        4.938;
     1.41707,        4.800;
     1.42066,        4.400;
     1.42156,        4.025;
     1.42156,        3.650;
     1.42335,        3.288;
     1.42515,        2.962;
     1.42605,        2.788;
     1.42784,        3.700;
     1.42964,        4.063;
     1.43144,        2.900;
     1.43593,        2.513;
     1.43593,        2.300;
     1.43952,        2.150;
     1.44132,        2.013;
     1.44491,        2.375;
     1.44850,        3.075;
     1.45299,        3.462;
     1.45838,        3.175;
     1.45928,        2.825;
     1.46018,        2.725;
     1.46737,        2.575;
     1.47725,        3.125;
     1.48443,        2.487;
     1.48802,        2.950;
     1.49611,        2.862;
     1.49970,        2.750;
     1.50240,        3.125;
     1.50509,        3.813;
     1.50778,        4.900;
     1.51138,        5.662;
     1.51677,        5.575;
     1.52126,        4.888;
     1.52485,        4.888;
     1.52934,        4.463;
     1.53204,        3.862;
     1.53293,        3.462;
     1.53563,        3.950;
     1.54012,        3.650;
     1.54371,        3.450;
     1.54551,        3.775;
     1.55090,        3.075;
     1.56527,        3.487;
     1.56886,        3.013;
     1.57515,        2.900;
     1.58144,        3.013;
     1.58952,        2.813;
     1.59581,        2.750;
     1.60120,        2.700;
     1.60749,        2.538;
     1.61018,        2.225;
     1.61287,        2.487;
     1.61647,        2.538;
     1.62096,        2.837;
     1.62096,        3.000;
     1.62635,        2.550;
     1.62904,        2.663;
     1.63443,        2.825;
     1.63443,        3.000;
     1.64251,        2.350;
     1.64251,        2.163;
     1.64611,        2.987;
     1.64970,        3.400;
     1.65419,        3.538;
     1.65509,        4.287;
     1.65599,        5.013;
     1.65689,        5.200;
     1.66138,        3.575;
     1.66497,        3.800;
     1.66587,        4.287;
     1.67036,        2.288;
     1.67485,        2.250;
     1.67844,        1.863;
     1.68204,        1.275;
     1.68383,        1.613;
     1.68922,        1.350;
     1.69461,        2.862;
     1.69461,        3.112;
     1.69551,        3.487;
     1.70180,        3.212;
     1.70359,        3.550;
     1.70629,        4.325;
     1.70719,        4.750;
     1.70808,        3.925;
     1.70898,        3.900;
     1.71347,        2.900;
     1.71886,        3.550;
     1.71976,        3.212;
     1.72066,        3.850;
     1.72246,        4.200;
     1.72515,        4.300;
     1.73323,        4.862;
     1.73503,        5.000;
     1.74042,        4.013;
     1.74311,        3.050;
     1.74850,        2.550;
     1.75299,        2.788;
     1.75389,        3.275;
     1.75659,        3.750;
     1.75838,        4.050;
     1.76377,        3.587;
     1.76557,        2.875;
     1.76737,        3.288;
     1.77096,        2.400;
     1.77186,        2.688;
     1.77635,        1.638;
     1.77725,        2.100;
     1.78084,        0.950;
     1.78443,        0.775;
     1.78892,        0.738;
     1.78892,        0.563;
     1.78982,        0.413;
     1.79341,        0.212;
     1.79521,        0.262;
     1.79880,        0.313;
     1.80240,        0.300;
     1.80958,        0.300;
     1.81228,        0.688;
     1.81946,        0.587;
     1.82575,        0.750;
     1.82844,        1.500;
     1.83024,        2.263;
     1.83383,        2.712;
     1.83922,        2.350;
     1.84012,        1.938;
     1.84461,        1.763;
     1.84641,        2.250;
     1.85000,        2.837;
     1.85090,        2.950;
     1.86257,        2.650;
     1.86796,        3.112;
     1.87335,        3.425;
     1.87695,        2.750;
     1.88144,        1.700;
     1.88593,        1.188;
     1.89132,        1.200;
     1.89491,        1.263;
     1.90030,        2.112;
     1.90569,        2.675;
     1.90838,        2.962;
     1.91287,        3.225;
     1.91826,        2.763;
     1.92006,        1.625;
     1.92994,        3.163;
     1.93263,        3.975;
     1.93713,        3.875;
     1.94251,        3.025;
     1.94611,        2.188;
     1.95419,        1.375;
     1.95419,        0.600;
     1.95599,        1.000;
     1.95689,        1.400;
     1.95778,        2.013;
     1.96317,        2.575;
     1.96677,        2.750;
     1.97216,        2.438;
     1.97575,        2.888;
     1.98653,        4.412;
     1.99012,        4.325;
     1.99281,        4.125;
     2.00000,        3.825;
     2.00808,        3.837;
     2.01078,        3.487;
     2.01168,        2.950;
     2.01437,        2.575;
     2.01796,        3.025;
     2.02246,        2.575;
     2.02605,        2.288;
     2.02874,        2.163;
     2.03144,        1.962;
     2.03683,        2.275;
     2.03683,        2.850;
     2.03772,        1.475;
     2.04042,        3.725;
     2.04401,        4.612;
     2.05569,        2.600;
     2.05659,        3.888;
     2.05838,        2.788;
     2.06108,        4.388;
     2.06737,        6.063;
     2.07455,        5.700;
     2.08174,        5.987;
     2.08623,        6.013;
     2.08982,        5.513;
     2.09072,        4.725;
     2.09521,        3.388;
     2.09970,        2.625;
     2.10599,        2.663;
     2.10958,        3.013;
     2.10958,        3.600;
     2.11677,        3.987;
     2.12305,        3.138;
     2.12665,        2.013;
     2.13114,        2.025;
     2.13563,        1.788;
     2.13922,        0.137;
     2.14371,        1.525;
     2.14551,        2.850;
     2.14910,        4.362;
     2.15449,        5.325;
     2.15629,        4.725;
     2.15808,        4.487;
     2.15988,        4.275;
     2.16707,        4.100;
     2.17066,        3.913;
     2.17695,        3.688;
     2.17874,        3.913;
     2.18054,        4.175;
     2.18503,        4.375;
     2.18862,        4.575;
     2.19222,        4.463;
     2.19671,        4.063;
     2.19940,        4.475;
     2.20030,        5.425;
     2.20569,        5.775;
     2.21467,        3.913;
     2.21916,        3.800;
     2.22275,        3.587;
     2.22545,        4.025;
     2.22904,        4.313;
     2.23623,        5.125;
     2.24072,        3.862;
     2.24072,        2.813;
     2.24341,        2.125;
     2.24790,        2.975;
     2.24970,        2.525;
     2.25150,        3.725;
     2.25240,        4.850;
     2.25509,        6.825;
     2.25599,        6.575;
     2.25868,        5.388;
     2.26317,        4.250;
     2.26497,        3.313;
     2.26677,        2.625;
     2.26946,        2.450;
     2.27305,        2.313;
     2.27575,        2.175;
     2.27665,        3.362;
     2.27844,        4.412;
     2.28024,        5.388;
     2.28473,        5.525;
     2.28922,        5.813;
     2.29820,        5.037;
     2.30269,        4.487;
     2.31257,        4.138;
     2.31796,        3.925;
     2.32156,        4.775;
     2.32515,        5.513;
     2.33054,        4.763;
     2.33323,        3.388;
     2.33772,        1.313;
     2.34042,        1.975;
     2.34311,        3.050;
     2.34311,        4.638;
     2.34760,        5.287;
     2.35120,        7.275;
     2.35210,        3.650;
     2.35389,        5.875;
     2.36018,        4.888;
     2.36287,        3.825;
     2.36287,        5.025;
     2.36647,        3.138;
     2.36647,        5.588;
     2.36737,        6.350;
     2.37096,        7.963;
     2.37365,        7.900;
     2.37545,        7.450;
     2.38174,        6.388;
     2.38263,        5.463;
     2.38533,        4.037;
     2.39341,        1.087;
     2.39970,        5.750;
     2.39970,        6.688;
     2.40150,        1.450;
     2.40150,        2.200;
     2.40778,        8.200;
     2.41138,        4.775;
     2.41228,        6.875;
     2.41587,        2.663;
     2.41677,        3.587;
     2.42036,        4.150;
     2.42485,        4.638;
     2.42665,        5.325;
     2.42844,        5.925;
     2.43383,        6.525;
     2.43563,        7.725;
     2.43922,        6.450;
     2.44551,        2.475;
     2.44731,        2.750;
     2.45000,        1.775;
     2.45449,        3.163;
     2.45629,        4.125;
     2.45719,        5.225;
     2.46437,        4.675;
     2.46437,        6.037;
     2.46976,        8.250;
     2.47605,        8.750;
     2.47695,        8.275;
     2.47964,        7.813;
     2.48593,        6.263;
     2.49132,        2.737;
     2.49581,        9.512;
     2.49760,        8.625;
     2.50569,        6.963;
     2.50659,        4.450;
     2.50928,        1.013;
     2.51377,        0.762;
     2.51557,        0.363;
     2.52186,        0.100;
     2.52725,        0.125;
     2.53084,        0.300;
     2.53443,        0.600;
     2.54162,        0.850;
     2.54251,        1.200;
     2.54701,        2.150;
     2.54790,        2.862;
     2.55599,        2.438;
     2.56138,        2.575;
     2.56317,        3.087;
     2.56946,        4.463;
     2.57305,        5.125;
     2.57485,        5.000;
     2.57934,        5.237;
     2.58473,        4.975;
     2.59371,        2.075;
     2.59371,        1.800;
     2.59731,        1.113;
     2.60000,        0.600;
     2.60000,        0.350;
     2.60988,        0.650;
     2.61437,        0.975;
     2.61437,        2.300;
     2.61886,        3.525;
     2.62156,        2.900;
     2.62784,        2.300;
     2.62784,        2.013;
     2.63413,        1.438;
     2.63952,        1.200;
     2.64222,        1.488;
     2.64311,        3.112;
     2.65030,        2.900;
     2.65749,        2.862;
     2.65749,        3.225;
     2.66018,        4.063;
     2.66198,        4.813;
     2.66647,        4.287;
     2.67365,        4.500;
     2.67814,        4.338;
     2.68623,        4.537;
     2.68802,        4.688;
     2.69341,        4.412;
     2.69701,        3.525;
     2.69880,        3.288;
     2.70240,        4.438;
     2.71677,        4.775;
     2.71946,        2.837;
     2.72126,        1.888;
     2.72485,        3.175;
     2.72575,        3.775;
     2.72844,        4.588;
     2.73114,        6.737;
     2.73204,        6.425;
     2.73473,        5.388;
     2.73563,        4.600;
     2.73922,        3.825;
     2.74012,        3.350;
     2.74371,        2.788;
     2.74461,        2.250;
     2.75090,        1.950;
     2.75090,        2.325;
     2.75180,        2.525;
     2.75359,        2.688;
     2.75539,        3.400;
     2.75629,        2.987;
     2.75988,        6.612;
     2.76078,        6.250;
     2.76347,        5.088;
     2.76796,        5.862;
     2.77066,        4.463;
     2.77335,        3.638;
     2.77784,        2.313;
     2.78413,        2.063;
     2.78683,        2.425;
     2.78772,        2.750;
     2.79401,        3.400;
     2.79491,        4.438;
     2.79940,        5.888;
     2.80030,        7.963;
     2.80299,        6.963;
     2.80569,        8.525;
     2.81108,        8.050;
     2.81287,        7.037;
     2.81826,        7.000;
     2.82365,        3.813;
     2.82455,        5.888;
     2.83353,        3.300;
     2.83443,        2.675;
     2.83892,        4.362;
     2.84251,        6.213;
     2.84611,        5.850;
     2.84970,        6.037;
     2.85329,        7.125;
     2.85509,        6.600;
     2.85778,        5.625;
     2.86228,        5.162;
     2.86856,        5.287;
     2.87126,        4.350;
     2.87305,        3.650;
     2.87665,        3.413;
     2.87754,        3.837;
     2.88204,        4.150;
     2.88743,        4.250;
     2.88832,        4.500;
     2.89012,        5.088;
     2.89371,        5.875;
     2.89910,        7.563;
     2.90180,        6.775;
     2.90449,        5.662;
     2.90808,        4.575;
     2.90808,        5.500;
     2.91168,        6.950;
     2.91707,        5.525;
     2.92066,        5.487;
     2.92156,        7.213;
     2.92784,        5.500;
     2.92874,        7.525;
     2.92964,        6.900;
     2.93323,        5.862;
     2.93503,        4.900;
     2.93862,        4.013;
     2.94132,        4.713;
     2.94760,        5.313;
     2.94940,        5.563;
     2.95120,        5.888;
     2.95389,        6.625;
     2.95928,        6.487;
     2.96287,        6.850;
     2.96737,        6.000;
     2.97006,        5.662;
     2.97365,        5.513;
     2.97725,        4.975;
     2.98713,        4.787;
     2.98713,        5.950;
     2.99431,        5.138;
     2.99970,        6.537;
     3.00419,        7.475;
     3.00868,        7.588;
     3.00868,        7.713;
     3.01138,        7.388;
     3.01856,        7.275;
     3.02216,        6.263;
     3.02305,        7.275;
     3.02934,        6.213;
     3.02934,        5.350;
     3.03204,        4.662;
     3.03204,        4.050;
     3.03563,        2.925;
     3.04012,        2.388;
     3.04192,        1.275;
     3.04910,        0.425;
     3.05180,        0.300;
     3.05898,        0.288;
     3.06707,        0.350;
     3.07335,        0.438;
     3.07515,        0.538;
     3.07784,        0.813;
     3.07784,        1.350;
     3.07874,        1.663;
     3.08234,        1.988;
     3.08862,        1.938;
     3.09760,        1.938;
     3.10030,        2.025;
     3.10120,        2.275;
     3.10659,        2.862;
     3.11018,        2.563;
     3.11287,        2.075;
     3.11737,        1.712;
     3.12006,        1.350;
     3.12186,        0.825;
     3.12635,        0.238;
     3.13084,        0.900;
     3.13263,        1.238;
     3.13353,        1.350;
     3.13533,        1.725;
     3.14162,        2.600;
     3.14611,        3.487;
     3.14970,        2.337;
     3.15060,        2.600;
     3.15509,        2.913;
     3.16228,        2.737;
     3.16946,        3.112;
     3.17485,        3.487;
     3.17844,        3.712;
     3.18293,        4.125;
     3.18743,        4.487;
     3.18743,        4.888;
     3.19281,        4.338;
     3.19641,        4.875;
     3.20090,        4.300;
     3.20539,        3.538;
     3.20629,        2.612;
     3.21168,        2.150;
     3.21347,        1.962;
     3.21796,        1.587;
     3.21886,        1.038;
     3.22695,        0.688;
     3.22874,        0.825;
     3.23144,        1.175;
     3.23323,        1.738;
     3.23862,        2.325;
     3.24042,        2.175;
     3.24222,        2.000;
     3.24671,        1.925;
     3.24940,        1.600;
     3.25299,        3.650;
     3.26018,        2.525;
     3.26198,        1.800;
     3.26377,        1.375;
     3.26737,        1.263;
     3.27096,        1.200;
     3.27635,        1.763;
     3.28263,        1.063;
     3.28353,        1.363;
     3.28353,        3.737;
     3.28802,        5.500;
     3.29162,        5.338;
     3.29611,        5.412;
     3.29880,        6.438;
     3.30240,        5.412;
     3.30778,        5.250;
     3.30868,        4.987;
     3.30958,        3.788;
     3.31048,        4.563;
     3.31317,        2.862;
     3.31497,        1.837;
     3.32036,        1.125;
     3.32036,        0.988;
     3.32754,        0.663;
     3.33024,        1.087;
     3.33024,        1.650;
     3.33653,        2.550;
     3.34012,        2.950;
     3.37695,        3.075;
     3.37874,        3.563;
     3.38323,        4.362;
     3.38503,        5.112;
     3.38683,        6.325;
     3.38862,        5.650;
     3.38952,        6.050;
     3.39042,        6.725;
     3.39311,        7.425;
     3.39311,        8.037;
     3.39671,        9.213;
     3.40210,        8.450;
     3.40569,        7.600;
     3.41108,        7.225;
     3.41198,        6.875;
     3.41377,        6.362;
     3.41737,        5.438;
     3.42186,        5.787;
     3.42365,        5.250;
     3.43084,        4.313;
     3.43443,        5.025;
     3.43623,        3.163;
     3.43713,        3.800;
     3.44701,        4.575;
     3.45868,        6.850;
     3.45958,        5.600;
     3.46317,        4.275;
     3.46497,        6.338;
     3.46677,        6.737;
     3.47395,        5.912;
     3.47844,        5.563;
     3.48473,        5.150;
     3.48653,        3.938;
     3.48922,        3.450;
     3.49281,        4.037;
     3.49461,        5.325;
     3.50180,        4.775;
     3.50719,        4.237;
     3.50898,        5.125;
     3.51168,        6.063;
     3.51527,        6.412;
     3.52695,        7.438;
     3.52695,        7.912;
     3.53413,        6.862;
     3.53862,        5.888;
     3.53862,        5.563;
     3.53862,        4.588;
     3.54850,        4.500;
     3.55659,        3.763;
     3.55838,        4.100;
     3.56198,        4.600;
     3.56377,        4.475;
     3.57545,        5.100;
     3.58084,        4.513;
     3.58802,        4.675;
     3.59341,        1.675;
     3.59431,        3.100;
     3.60419,        1.363;
     3.61138,        0.975;
     3.61138,        0.587;
     3.61228,        1.425;
     3.61228,        2.200;
     3.61407,        2.962;
     3.61407,        3.025;
     3.61677,        2.075;
     3.62665,        1.913;
     3.63653,        2.150;
     3.64461,        1.925;
     3.64731,        1.725;
     3.65000,        2.175;
     3.65284,        2.074;
     3.65735,        2.724;
     3.66186,        2.429;
     3.66546,        2.110;
     3.66546,        2.110;
     3.66727,        1.963;
     3.67629,        2.258;
     3.68080,        3.313;
     3.68080,        4.074;
     3.68441,        3.472;
     3.68802,        2.209;
     3.69162,        1.325;
     3.69433,        0.969;
     3.69433,        0.969;
     3.70425,        0.871;
     3.70696,        1.031;
     3.70786,        1.595;
     3.71057,        2.368;
     3.71327,        2.945;
     3.71869,        2.761;
     3.72500,        2.540;
     3.73041,        2.896;
     3.73402,        3.337;
     3.73763,        3.632;
     3.74034,        4.086;
     3.74845,        3.742;
     3.75296,        3.399;
     3.75567,        2.982;
     3.76018,        2.577;
     3.76018,        2.577;
     3.77642,        2.724;
     3.78093,        2.515;
     3.78454,        3.595;
     3.78634,        3.988;
     3.79085,        3.337;
     3.79446,        2.626;
     3.80077,        2.074;
     3.80528,        2.221;
     3.81160,        2.773;
     3.81521,        3.656;
     3.81881,        4.172;
     3.82332,        3.963;
     3.82513,        2.454;
     3.82874,        1.337;
     3.83144,        2.086;
     3.83144,        2.712;
     3.83595,        3.166;
     3.83866,        3.423;
     3.84678,        2.883;
     3.85129,        3.141;
     3.85490,        4.049;
     3.85490,        4.049;
     3.86572,        4.552;
     3.86753,        4.945;
     3.87204,        5.448;
     3.87204,        5.448;
     3.87384,        5.816;
     3.87925,        3.387;
     3.88196,        2.074;
     3.88647,        2.319;
     3.89008,        3.055;
     3.89369,        3.644;
     3.89369,        3.644];
%
%  tim=MV93(:,1);
%  vadm=MV93(:,2);
%