% SINT800
% sint-800 paleointensity of geomagnetic field compilation 
% from:
% Guyodo, Y. and J-P. Valet, Global changes in intensity of 
% the Earth's magnetic field  during the past 800 kyr, 
% Nature, 399, 249-252, 1999.
%
% vadm is in Am
% age is millions of years
%

%AGE(ka), # of CORES, SINT-800, STDERR(2 SIGMA),STDERR(1 SIGMA)
% VADM 10^22 Am^2 (Calib. 0-40 ka)	STD ERR. VADM;

sint800=[
2.0000	6.0000	1.0404	0.54767	0.25277	6.7014	1.8408;
3.0000	7.0000	1.1941	0.44341	0.20323	7.8205	1.4800;
4.0000	7.0000	1.2003	0.43393	0.19889	7.8662	1.4484;
5.0000	8.0000	1.1740	0.42783	0.19609	7.6745	1.4280;
6.0000	10.000	1.2500	0.34215	0.16364	8.2279	1.1917;
7.0000	11.000	1.2453	0.32244	0.16122	8.1939	1.1741;
8.0000	11.000	1.2143	0.28408	0.14204	7.9681	1.0344;
9.0000	13.000	1.2222	0.26160	0.13080	8.0253	0.95256;
10.000	15.000	1.1642	0.23375	0.12244	7.6032	0.89167;
11.000	16.000	1.2054	0.22911	0.12001	7.9030	0.87400;
12.000	17.000	1.1674	0.18930	0.099155	7.6264	0.72211;
13.000	17.000	1.1401	0.18708	0.097992	7.4274	0.71364;
14.000	21.000	1.0946	0.18059	0.094596	7.0964	0.68891;
15.000	22.000	1.0116	0.16792	0.087960	6.4922	0.64058;
16.000	22.000	0.99785	0.19081	0.099946	6.3917	0.72787;
17.000	23.000	0.97313	0.11679	0.061174	6.2116	0.44550;
18.000	24.000	1.0067	0.13400	0.070188	6.4564	0.51115;
19.000	24.000	0.99998	0.16230	0.085012	6.4072	0.61911;
20.000	24.000	0.98559	0.16867	0.088350	6.3024	0.64341;
21.000	24.000	0.98103	0.13533	0.070887	6.2691	0.51624;
22.000	24.000	0.90499	0.12178	0.063791	5.7154	0.46457;
23.000	25.000	0.88211	0.11263	0.058995	5.5488	0.42964;
24.000	26.000	0.87779	0.088853	0.046542	5.5174	0.33895;
25.000	26.000	0.94432	0.094826	0.049671	6.0018	0.36173;
26.000	26.000	0.89750	0.079780	0.041789	5.6608	0.30434;
27.000	26.000	0.85466	0.089152	0.046699	5.3489	0.34009;
28.000	26.000	0.77965	0.10023	0.052503	4.8026	0.38236;
29.000	26.000	0.79607	0.089574	0.046920	4.9222	0.34170;
30.000	26.000	0.84232	0.11888	0.062271	5.2590	0.45349;
31.000	26.000	0.82689	0.086183	0.045143	5.1466	0.32876;
32.000	26.000	0.80352	0.089244	0.046747	4.9765	0.34044;
33.000	27.000	0.81532	0.10322	0.054068	5.0624	0.39376;
34.000	27.000	0.77623	0.11330	0.059347	4.7777	0.43220;
35.000	27.000	0.72035	0.10221	0.053536	4.3708	0.38988;
36.000	27.000	0.61312	0.088411	0.046311	3.5898	0.33726;
37.000	27.000	0.51847	0.084797	0.044418	2.9006	0.32348;
38.000	27.000	0.51863	0.078338	0.041034	2.9017	0.29883;
39.000	27.000	0.59206	0.098547	0.051620	3.4365	0.37593;
40.000	27.000	0.55734	0.072239	0.037839	3.1836	0.27557;
41.000	28.000	0.54999	0.079327	0.041552	3.1301	0.30261;
42.000	28.000	0.62108	0.079098	0.041432	3.6478	0.30173;
43.000	28.000	0.68569	0.094006	0.049241	4.1183	0.35861;
44.000	28.000	0.73418	0.092772	0.048595	4.4715	0.35390;
45.000	28.000	0.77140	0.10697	0.056032	4.7426	0.40806;
46.000	28.000	0.85307	0.10680	0.055940	5.3373	0.40739;
47.000	28.000	0.93292	0.14541	0.076170	5.9188	0.55471;
48.000	28.000	0.98524	0.15278	0.080028	6.2998	0.58282;
49.000	28.000	1.0682	0.14051	0.073600	6.9037	0.53600;
50.000	28.000	1.1168	0.11173	0.058524	7.2578	0.42621;
51.000	28.000	1.2072	0.097938	0.051301	7.9159	0.37360;
52.000	28.000	1.2177	0.10868	0.056929	7.9931	0.41459;
53.000	28.000	1.1911	0.11468	0.060069	7.7989	0.43746;
54.000	28.000	1.1996	0.10046	0.052621	7.8606	0.38322;
55.000	28.000	1.2311	0.10820	0.056679	8.0905	0.41277;
56.000	28.000	1.2406	0.16838	0.088202	8.1596	0.64234;
57.000	27.000	1.1396	0.15693	0.082201	7.4236	0.59863;
58.000	27.000	1.0910	0.15567	0.081540	7.0703	0.59382;
59.000	27.000	1.0659	0.16310	0.085432	6.8869	0.62217;
60.000	27.000	0.98172	0.12982	0.068000	6.2742	0.49522;
61.000	27.000	0.90975	0.10732	0.056214	5.7501	0.40938;
62.000	27.000	0.85844	0.092127	0.048257	5.3764	0.35144;
63.000	26.000	0.88581	0.089627	0.046947	5.5757	0.34190;
64.000	26.000	0.80588	0.14068	0.073687	4.9936	0.53663;
65.000	26.000	0.81323	0.15039	0.078778	5.0472	0.57371;
66.000	26.000	0.80780	0.15383	0.080578	5.0076	0.58682;
67.000	26.000	0.82414	0.13847	0.072534	5.1266	0.52824;
68.000	26.000	0.85216	0.11632	0.060929	5.3307	0.44372;
69.000	26.000	0.87722	0.096612	0.050606	5.5132	0.36855;
70.000	26.000	0.91475	0.078782	0.041267	5.7865	0.30053;
71.000	26.000	0.96622	0.085519	0.044796	6.1614	0.32623;
72.000	26.000	1.0011	0.11966	0.062677	6.4152	0.45645;
73.000	26.000	0.96903	0.12645	0.066234	6.1818	0.48236;
74.000	26.000	0.88084	0.10766	0.056392	5.5396	0.41068;
75.000	26.000	0.92224	0.14109	0.073902	5.8410	0.53820;
76.000	26.000	0.93662	0.12569	0.065838	5.9458	0.47947;
77.000	26.000	0.98727	0.13653	0.071514	6.3147	0.52080;
78.000	26.000	0.95583	0.13489	0.070659	6.0856	0.51458;
79.000	26.000	1.0071	0.14363	0.075235	6.4590	0.54790;
80.000	26.000	1.0130	0.13311	0.069724	6.5020	0.50778;
81.000	26.000	0.97585	0.11761	0.061607	6.2315	0.44866;
82.000	26.000	0.98698	0.10941	0.057310	6.3125	0.41736;
83.000	26.000	0.92628	0.10345	0.054188	5.8705	0.39463;
84.000	26.000	0.91204	0.092088	0.048237	5.7668	0.35129;
85.000	26.000	0.99435	0.10062	0.052704	6.3662	0.38382;
86.000	26.000	1.0638	0.15228	0.079764	6.8718	0.58089;
87.000	26.000	0.95926	0.10832	0.056737	6.1107	0.41319;
88.000	26.000	0.89446	0.10024	0.052506	5.6387	0.38238;
89.000	26.000	0.90678	0.11830	0.061967	5.7285	0.45128;
90.000	26.000	0.90267	0.11491	0.060190	5.6985	0.43834;
91.000	26.000	0.89322	0.12590	0.065949	5.6297	0.48028;
92.000	26.000	0.84413	0.10618	0.055616	5.2722	0.40503;
93.000	26.000	0.79558	0.10270	0.053793	4.9186	0.39175;
94.000	26.000	0.74065	0.10926	0.057229	4.5186	0.41678;
95.000	26.000	0.71522	0.11535	0.060420	4.3334	0.44002;
96.000	26.000	0.69683	0.11302	0.059199	4.1995	0.43112;
97.000	26.000	0.66107	0.096165	0.050372	3.9391	0.36684;
98.000	26.000	0.61379	0.093713	0.049088	3.5947	0.35749;
99.000	26.000	0.59180	0.089427	0.046843	3.4346	0.34114;
100.00	27.000	0.60824	0.078237	0.040981	3.5543	0.29845;
101.00	27.000	0.63659	0.079934	0.041870	3.7608	0.30493;
102.00	26.000	0.65774	0.083710	0.043848	3.9148	0.31933;
103.00	26.000	0.68034	0.086153	0.045128	4.0794	0.32865;
104.00	26.000	0.69589	0.11438	0.059912	4.1926	0.43632;
105.00	26.000	0.66328	0.10080	0.052799	3.9551	0.38451;
106.00	26.000	0.68937	0.10189	0.053373	4.1451	0.38870;
107.00	25.000	0.68708	0.098218	0.051448	4.1284	0.37467;
108.00	25.000	0.69157	0.094155	0.049319	4.1612	0.35917;
109.00	25.000	0.68377	0.080296	0.042060	4.1044	0.30631;
110.00	25.000	0.67871	0.070295	0.036821	4.0675	0.26816;
111.00	24.000	0.69570	0.076353	0.039994	4.1913	0.29126;
112.00	24.000	0.67322	0.086337	0.045224	4.0275	0.32935;
113.00	24.000	0.66622	0.079790	0.041795	3.9765	0.30437;
114.00	24.000	0.67603	0.091184	0.047763	4.0480	0.34784;
115.00	24.000	0.69323	0.089791	0.047033	4.1732	0.34253;
116.00	24.000	0.68525	0.076353	0.039994	4.1151	0.29126;
117.00	24.000	0.66702	0.083538	0.043758	3.9824	0.31867;
118.00	24.000	0.68591	0.081414	0.042646	4.1200	0.31057;
119.00	24.000	0.66730	0.10083	0.052816	3.9844	0.38464;
120.00	24.000	0.68750	0.096460	0.050527	4.1315	0.36797;
121.00	24.000	0.70884	0.10426	0.054611	4.2869	0.39771;
122.00	24.000	0.72190	0.11166	0.058488	4.3821	0.42594;
123.00	23.000	0.73888	0.10286	0.053877	4.5057	0.39237;
124.00	24.000	0.78373	0.10953	0.057373	4.8324	0.41782;
125.00	24.000	0.81880	0.10229	0.053581	5.0877	0.39021;
126.00	24.000	0.83808	0.10793	0.056536	5.2281	0.41173;
127.00	24.000	0.85531	0.11474	0.060103	5.3536	0.43771;
128.00	25.000	0.82382	0.086886	0.045512	5.1243	0.33144;
129.00	25.000	0.84903	0.095100	0.049814	5.3079	0.36278;
130.00	25.000	0.83993	0.098366	0.051525	5.2416	0.37524;
131.00	25.000	0.80260	0.094909	0.049714	4.9697	0.36205;
132.00	25.000	0.82596	0.088132	0.046164	5.1399	0.33620;
133.00	25.000	0.83566	0.094486	0.049493	5.2105	0.36044;
134.00	25.000	0.82817	0.088030	0.046111	5.1560	0.33581;
135.00	25.000	0.83748	0.11276	0.059066	5.2238	0.43016;
136.00	23.000	0.91982	0.11170	0.058508	5.8234	0.42609;
137.00	23.000	0.91366	0.091491	0.047924	5.7785	0.34901;
138.00	22.000	0.99331	0.091224	0.047784	6.3586	0.34799;
139.00	21.000	1.0282	0.11580	0.060659	6.6130	0.44176;
140.00	21.000	1.0123	0.10945	0.057333	6.4971	0.41753;
141.00	21.000	0.99284	0.10259	0.053736	6.3552	0.39134;
142.00	21.000	1.0319	0.11533	0.060410	6.6397	0.43994;
143.00	21.000	1.0546	0.13182	0.069050	6.8051	0.50286;
144.00	21.000	1.0468	0.14665	0.076819	6.7483	0.55944;
145.00	21.000	1.0815	0.16704	0.087499	7.0011	0.63722;
146.00	21.000	1.1474	0.20833	0.10913	7.4806	0.79473;
147.00	21.000	1.1090	0.18127	0.094952	7.2011	0.69149;
148.00	21.000	1.0404	0.16809	0.088047	6.7012	0.64121;
149.00	21.000	1.0210	0.16999	0.089041	6.5604	0.64845;
150.00	21.000	0.97934	0.17497	0.091650	6.2569	0.66745;
151.00	21.000	0.93047	0.15089	0.079038	5.9010	0.57560;
152.00	21.000	0.92907	0.15844	0.082991	5.8908	0.60439;
153.00	21.000	0.95786	0.17176	0.089971	6.1005	0.65523;
154.00	21.000	0.93162	0.18589	0.097371	5.9093	0.70911;
155.00	21.000	0.88500	0.13353	0.069946	5.5698	0.50939;
156.00	21.000	0.98258	0.16225	0.084989	6.2805	0.61894;
157.00	21.000	1.0755	0.18872	0.098851	6.9574	0.71989;
158.00	21.000	1.1182	0.19748	0.10344	7.2681	0.75332;
159.00	21.000	1.1044	0.18418	0.096478	7.1674	0.70261;
160.00	20.000	1.0032	0.15367	0.080491	6.4307	0.58619;
161.00	20.000	0.97392	0.15994	0.083777	6.2174	0.61011;
162.00	20.000	0.93169	0.14068	0.073689	5.9098	0.53665;
163.00	20.000	0.92424	0.12094	0.063348	5.8556	0.46134;
164.00	20.000	0.99866	0.11021	0.057728	6.3976	0.42041;
165.00	20.000	1.0677	0.11610	0.060813	6.9000	0.44287;
166.00	20.000	1.0792	0.11774	0.061673	6.9839	0.44914;
167.00	20.000	1.0035	0.11206	0.058697	6.4331	0.42746;
168.00	20.000	1.0317	0.11327	0.059330	6.6380	0.43208;
169.00	20.000	0.99019	0.12387	0.064885	6.3359	0.47253;
170.00	20.000	0.95592	0.11052	0.057893	6.0863	0.42161;
171.00	20.000	0.96466	0.12219	0.064006	6.1500	0.46613;
172.00	20.000	0.92113	0.12059	0.063165	5.8330	0.46001;
173.00	20.000	0.87560	0.12432	0.065122	5.5014	0.47426;
174.00	20.000	0.90121	0.13401	0.070195	5.6879	0.51121;
175.00	20.000	0.94191	0.16516	0.086514	5.9843	0.63004;
176.00	20.000	0.94859	0.18697	0.097936	6.0329	0.71323;
177.00	19.000	0.96762	0.17079	0.089462	6.1715	0.65152;
178.00	19.000	0.95610	0.16174	0.084723	6.0876	0.61700;
179.00	19.000	0.89679	0.16789	0.087944	5.6557	0.64046;
180.00	19.000	0.84143	0.16756	0.087769	5.2526	0.63918;
181.00	19.000	0.79247	0.16726	0.087613	4.8960	0.63805;
182.00	19.000	0.73048	0.15040	0.078779	4.4446	0.57372;
183.00	19.000	0.63525	0.12247	0.064150	3.7510	0.46718;
184.00	19.000	0.55664	0.097545	0.051095	3.1785	0.37211;
185.00	19.000	0.57403	0.11291	0.059144	3.3051	0.43072;
186.00	19.000	0.53825	0.13947	0.073054	3.0446	0.53202;
187.00	19.000	0.48687	0.13086	0.068546	2.6704	0.49919;
188.00	19.000	0.46385	0.13644	0.071471	2.5028	0.52050;
189.00	18.000	0.48667	0.14274	0.074768	2.6689	0.54451;
190.00	17.000	0.48338	0.17819	0.093340	2.6450	0.67976;
191.00	17.000	0.44110	0.14111	0.073913	2.3371	0.53828;
192.00	17.000	0.46081	0.12026	0.062995	2.4806	0.45877;
193.00	17.000	0.57215	0.12629	0.066153	3.2915	0.48176;
194.00	17.000	0.63162	0.12684	0.066441	3.7246	0.48387;
195.00	16.000	0.71127	0.12275	0.064299	4.3046	0.46826;
196.00	16.000	0.75070	0.13560	0.071028	4.5918	0.51726;
197.00	16.000	0.78135	0.13512	0.070775	4.8150	0.51543;
198.00	16.000	0.80709	0.13507	0.070749	5.0024	0.51524;
199.00	15.000	0.79156	0.12429	0.065105	4.8893	0.47414;
200.00	15.000	0.83453	0.15552	0.081460	5.2023	0.59324;
201.00	15.000	0.89676	0.18378	0.096264	5.6555	0.70105;
202.00	15.000	0.93816	0.20367	0.10669	5.9570	0.77695;
203.00	15.000	0.94618	0.23305	0.12207	6.0154	0.88901;
204.00	15.000	0.90315	0.15795	0.082735	5.7020	0.60253;
205.00	15.000	0.93999	0.16502	0.086437	5.9703	0.62949;
206.00	15.000	0.93415	0.16119	0.084434	5.9278	0.61490;
207.00	15.000	0.90337	0.18516	0.096986	5.7036	0.70631;
208.00	15.000	0.94435	0.19584	0.10258	6.0021	0.74708;
209.00	15.000	0.95268	0.20788	0.10889	6.0627	0.79298;
210.00	15.000	0.94280	0.22143	0.11599	5.9908	0.84467;
211.00	15.000	0.91047	0.19222	0.10068	5.7553	0.73324;
212.00	15.000	0.86123	0.18800	0.098476	5.3967	0.71716;
213.00	15.000	0.83917	0.17886	0.093686	5.2360	0.68228;
214.00	15.000	0.87823	0.16655	0.087241	5.5206	0.63534;
215.00	15.000	0.85603	0.16866	0.088346	5.3589	0.64338;
216.00	15.000	0.83940	0.17547	0.091910	5.2378	0.66935;
217.00	15.000	0.86418	0.18285	0.095777	5.4182	0.69751;
218.00	14.000	0.88774	0.20225	0.10113	5.5898	0.73646;
219.00	14.000	0.84822	0.18475	0.092376	5.3020	0.67274;
220.00	14.000	0.90284	0.18960	0.094801	5.6998	0.69040;
221.00	14.000	0.89169	0.18628	0.093140	5.6186	0.67830;
222.00	14.000	0.98040	0.21298	0.10649	6.2646	0.77552;
223.00	14.000	0.94746	0.16248	0.081242	6.0247	0.59165;
224.00	14.000	0.94657	0.20012	0.10006	6.0182	0.72869;
225.00	14.000	0.99362	0.21163	0.10582	6.3609	0.77062;
226.00	14.000	0.99169	0.20261	0.10130	6.3468	0.73776;
227.00	14.000	0.93359	0.19488	0.097441	5.9237	0.70963;
228.00	14.000	1.0191	0.22230	0.11115	6.5461	0.80948;
229.00	14.000	1.1576	0.29118	0.14559	7.5549	1.0603;
230.00	14.000	1.1758	0.30997	0.15499	7.6879	1.1287;
231.00	14.000	1.2035	0.33057	0.16529	7.8895	1.2037;
232.00	14.000	1.2045	0.34839	0.17419	7.8967	1.2686;
233.00	14.000	1.1216	0.27461	0.13731	7.2926	0.99994;
234.00	14.000	1.0747	0.23126	0.11563	6.9515	0.84209;
235.00	14.000	1.0312	0.20723	0.10362	6.6343	0.75459;
236.00	14.000	0.98247	0.24092	0.12046	6.2797	0.87725;
237.00	14.000	1.0285	0.17287	0.086435	6.6147	0.62947;
238.00	14.000	1.0327	0.22601	0.11300	6.6456	0.82296;
239.00	14.000	1.0270	0.24824	0.12412	6.6037	0.90391;
240.00	14.000	1.0090	0.20698	0.10349	6.4726	0.75366;
241.00	14.000	0.96000	0.19745	0.098726	6.1161	0.71898;
242.00	14.000	0.92583	0.19771	0.098854	5.8672	0.71991;
243.00	14.000	0.95297	0.15257	0.076286	6.0648	0.55556;
244.00	14.000	0.94083	0.18268	0.091338	5.9764	0.66518;
245.00	14.000	0.85781	0.14965	0.074827	5.3718	0.54493;
246.00	14.000	0.87030	0.17000	0.084998	5.4628	0.61900;
247.00	14.000	0.89738	0.22810	0.11405	5.6600	0.83057;
248.00	14.000	0.92622	0.21846	0.10923	5.8700	0.79549;
249.00	14.000	1.0062	0.24010	0.12005	6.4526	0.87426;
250.00	14.000	1.0742	0.23497	0.11749	6.9480	0.85560;
251.00	14.000	1.1012	0.22237	0.11119	7.1447	0.80972;
252.00	14.000	1.1147	0.20460	0.10230	7.2426	0.74500;
253.00	14.000	1.0721	0.18820	0.094102	6.9327	0.68531;
254.00	14.000	1.0535	0.22426	0.11213	6.7969	0.81659;
255.00	14.000	1.0076	0.19195	0.095976	6.4626	0.69895;
256.00	14.000	0.97508	0.18652	0.093258	6.2258	0.67916;
257.00	14.000	0.95718	0.21597	0.10799	6.0955	0.78642;
258.00	14.000	0.99160	0.24339	0.12169	6.3462	0.88625;
259.00	14.000	0.95936	0.24256	0.12128	6.1114	0.88324;
260.00	14.000	0.85437	0.19514	0.097572	5.3468	0.71058;
261.00	14.000	0.82047	0.15546	0.077731	5.0999	0.56608;
262.00	14.000	0.81579	0.14500	0.072502	5.0658	0.52801;
263.00	14.000	0.79341	0.14129	0.070647	4.9028	0.51449;
264.00	14.000	0.73979	0.16101	0.080504	4.5123	0.58628;
265.00	14.000	0.72633	0.14237	0.071185	4.4143	0.51841;
266.00	14.000	0.70436	0.13735	0.068677	4.2543	0.50015;
267.00	14.000	0.70873	0.14384	0.071920	4.2861	0.52377;
268.00	14.000	0.74485	0.11936	0.059679	4.5492	0.43462;
269.00	14.000	0.81130	0.16483	0.082417	5.0331	0.60021;
270.00	14.000	0.77320	0.14145	0.070725	4.7557	0.51506;
271.00	14.000	0.76338	0.13818	0.069089	4.6841	0.50315;
272.00	14.000	0.81176	0.16293	0.081464	5.0365	0.59327;
273.00	14.000	0.81020	0.15641	0.078204	5.0251	0.56953;
274.00	14.000	0.80410	0.14115	0.070576	4.9806	0.51398;
275.00	14.000	0.78042	0.11932	0.059660	4.8082	0.43448;
276.00	14.000	0.82821	0.13220	0.066102	5.1562	0.48139;
277.00	14.000	0.78114	0.10589	0.052947	4.8134	0.38559;
278.00	13.000	0.78715	0.12227	0.061133	4.8572	0.44521;
279.00	12.000	0.82209	0.17656	0.088279	5.1117	0.64290;
280.00	12.000	0.85873	0.18739	0.093696	5.3785	0.68235;
281.00	12.000	0.89986	0.18372	0.091859	5.6781	0.66897;
282.00	12.000	0.88122	0.18780	0.093900	5.5423	0.68383;
283.00	12.000	0.85114	0.15123	0.075617	5.3232	0.55069;
284.00	12.000	0.85205	0.19593	0.097963	5.3299	0.71343;
285.00	12.000	0.79955	0.13462	0.067310	4.9475	0.49019;
286.00	12.000	0.80423	0.15728	0.078641	4.9816	0.57271;
287.00	12.000	0.80160	0.15589	0.077946	4.9624	0.56765;
288.00	12.000	0.77871	0.15252	0.076261	4.7957	0.55538;
289.00	12.000	0.74520	0.15639	0.078193	4.5517	0.56945;
290.00	12.000	0.74867	0.14146	0.070732	4.5770	0.51511;
291.00	12.000	0.75977	0.13654	0.068268	4.6578	0.49717;
292.00	12.000	0.77227	0.12509	0.062545	4.7488	0.45549;
293.00	12.000	0.78550	0.13403	0.067014	4.8452	0.48803;
294.00	12.000	0.80479	0.11775	0.058877	4.9857	0.42877;
295.00	12.000	0.85352	0.13538	0.067692	5.3406	0.49298;
296.00	12.000	0.93629	0.15538	0.077688	5.9433	0.56577;
297.00	12.000	0.93501	0.20020	0.10010	5.9341	0.72898;
298.00	12.000	0.93981	0.20093	0.10046	5.9690	0.73164;
299.00	12.000	0.99089	0.22265	0.11133	6.3410	0.81075;
300.00	12.000	1.0566	0.27466	0.13733	6.8196	1.0001;
301.00	12.000	1.0971	0.29499	0.14749	7.1144	1.0741;
302.00	12.000	0.99371	0.16515	0.082575	6.3616	0.60136;
303.00	12.000	0.95088	0.14247	0.071237	6.0496	0.51879;
304.00	12.000	0.95389	0.21181	0.10590	6.0715	0.77125;
305.00	12.000	0.93408	0.17555	0.087773	5.9273	0.63922;
306.00	12.000	0.87617	0.10341	0.051704	5.5055	0.37654;
307.00	12.000	0.90864	0.10250	0.051248	5.7420	0.37322;
308.00	12.000	0.84999	0.10875	0.054374	5.3149	0.39598;
309.00	12.000	0.86538	0.11779	0.058894	5.4270	0.42890;
310.00	12.000	0.86808	0.12510	0.062549	5.4466	0.45552;
311.00	12.000	0.92040	0.15604	0.078020	5.8276	0.56818;
312.00	13.000	0.86495	0.098071	0.049035	5.4238	0.35710;
313.00	13.000	0.89081	0.13116	0.065579	5.6122	0.47759;
314.00	13.000	0.85342	0.13125	0.065625	5.3399	0.47792;
315.00	13.000	0.82770	0.12794	0.063971	5.1525	0.46588;
316.00	13.000	0.83857	0.12941	0.064703	5.2317	0.47120;
317.00	13.000	0.81747	0.11325	0.056626	5.0780	0.41238;
318.00	13.000	0.80893	0.097904	0.048952	5.0158	0.35650;
319.00	13.000	0.83385	0.10362	0.051809	5.1973	0.37730;
320.00	13.000	0.87849	0.10738	0.053691	5.5224	0.39101;
321.00	13.000	0.86093	0.10461	0.052306	5.3946	0.38092;
322.00	13.000	0.87909	0.12005	0.060023	5.5268	0.43712;
323.00	13.000	0.86442	0.12968	0.064841	5.4200	0.47221;
324.00	13.000	0.91889	0.17282	0.086412	5.8166	0.62930;
325.00	13.000	0.85429	0.11338	0.056692	5.3462	0.41286;
326.00	13.000	0.86651	0.13401	0.067004	5.4352	0.48796;
327.00	13.000	0.86243	0.13444	0.067222	5.4055	0.48955;
328.00	13.000	0.89063	0.14508	0.072538	5.6108	0.52826;
329.00	13.000	0.87850	0.13960	0.069799	5.5225	0.50832;
330.00	13.000	0.96030	0.14184	0.070919	6.1182	0.51647;
331.00	13.000	1.0221	0.10021	0.050106	6.5685	0.36490;
332.00	13.000	0.96156	0.12741	0.063704	6.1274	0.46393;
333.00	13.000	1.0146	0.12845	0.064223	6.5135	0.46771;
334.00	13.000	1.0059	0.14015	0.070073	6.4501	0.51031;
335.00	13.000	0.95006	0.14495	0.072477	6.0436	0.52782;
336.00	13.000	0.96496	0.11597	0.057983	6.1522	0.42227;
337.00	13.000	0.97595	0.099112	0.049556	6.2322	0.36090;
338.00	13.000	1.0502	0.12881	0.064406	6.7731	0.46905;
339.00	13.000	1.0208	0.12448	0.062242	6.5592	0.45328;
340.00	13.000	0.93191	0.18895	0.094474	5.9115	0.68802;
341.00	13.000	0.94331	0.16091	0.080456	5.9945	0.58593;
342.00	13.000	0.96289	0.17257	0.086284	6.1370	0.62838;
343.00	13.000	1.0132	0.21681	0.10840	6.5037	0.78946;
344.00	13.000	1.0185	0.23520	0.11760	6.5422	0.85642;
345.00	13.000	0.99866	0.21286	0.10643	6.3975	0.77509;
346.00	13.000	0.95281	0.18688	0.093441	6.0637	0.68049;
347.00	13.000	1.0045	0.19729	0.098647	6.4399	0.71841;
348.00	13.000	1.0359	0.19828	0.099141	6.6689	0.72201;
349.00	13.000	1.0966	0.21738	0.10869	7.1107	0.79155;
350.00	13.000	1.0872	0.19884	0.099422	7.0425	0.72405;
351.00	13.000	1.1788	0.24096	0.12048	7.7096	0.87741;
352.00	13.000	1.1428	0.18844	0.094220	7.4470	0.68616;
353.00	13.000	1.2033	0.17959	0.089795	7.8876	0.65394;
354.00	13.000	1.2693	0.14288	0.071438	8.3682	0.52025;
355.00	13.000	1.2996	0.12327	0.061633	8.5894	0.44885;
356.00	13.000	1.2197	0.087811	0.043905	8.0071	0.31975;
357.00	13.000	1.2254	0.13934	0.069671	8.0487	0.50738;
358.00	13.000	1.2491	0.14502	0.072512	8.2213	0.52808;
359.00	13.000	1.2766	0.13555	0.067777	8.4214	0.49359;
360.00	13.000	1.2728	0.12256	0.061281	8.3942	0.44628;
361.00	13.000	1.2933	0.11748	0.058738	8.5430	0.42776;
362.00	13.000	1.2784	0.12469	0.062343	8.4349	0.45402;
363.00	13.000	1.3080	0.10894	0.054469	8.6503	0.39668;
364.00	13.000	1.2444	0.12224	0.061119	8.1872	0.44510;
365.00	13.000	1.2432	0.097592	0.048796	8.1783	0.35536;
366.00	13.000	1.2006	0.097183	0.048592	7.8686	0.35387;
367.00	13.000	1.2033	0.14963	0.074816	7.8880	0.54485;
368.00	13.000	1.1751	0.13369	0.066843	7.6829	0.48679;
369.00	13.000	1.1900	0.14374	0.071872	7.7909	0.52341;
370.00	13.000	1.1837	0.17039	0.085197	7.7453	0.62046;
371.00	13.000	1.1690	0.15140	0.075699	7.6382	0.55128;
372.00	13.000	1.1442	0.13983	0.069914	7.4573	0.50916;
373.00	13.000	1.1205	0.11603	0.058014	7.2846	0.42249;
374.00	13.000	1.0887	0.14042	0.070208	7.0531	0.51130;
375.00	13.000	1.1398	0.13019	0.065096	7.4252	0.47406;
376.00	13.000	1.0815	0.10792	0.053960	7.0009	0.39297;
377.00	13.000	1.0451	0.10268	0.051340	6.7355	0.37389;
378.00	13.000	1.0470	0.14105	0.070524	6.7495	0.51360;
379.00	13.000	1.0374	0.15444	0.077221	6.6800	0.56237;
380.00	13.000	0.97989	0.10688	0.053438	6.2609	0.38916;
381.00	13.000	0.97533	0.13371	0.066857	6.2276	0.48689;
382.00	13.000	0.92273	0.090981	0.045490	5.8446	0.33129;
383.00	13.000	0.84944	0.076298	0.038149	5.3109	0.27782;
384.00	13.000	0.84487	0.068070	0.034035	5.2776	0.24786;
385.00	13.000	0.78495	0.079645	0.039822	4.8412	0.29001;
386.00	13.000	0.79478	0.066335	0.033167	4.9128	0.24154;
387.00	13.000	0.79670	0.081709	0.040854	4.9268	0.29753;
388.00	13.000	0.78826	0.098345	0.049173	4.8653	0.35811;
389.00	13.000	0.81236	0.11802	0.059009	5.0409	0.42974;
390.00	13.000	0.76898	0.096443	0.048222	4.7249	0.35118;
391.00	13.000	0.76610	0.088355	0.044177	4.7040	0.32173;
392.00	13.000	0.80931	0.11089	0.055446	5.0186	0.40379;
393.00	13.000	0.81776	0.14556	0.072780	5.0801	0.53003;
394.00	13.000	0.82335	0.14159	0.070795	5.1209	0.51557;
395.00	13.000	0.82367	0.11951	0.059753	5.1232	0.43516;
396.00	13.000	0.84732	0.14191	0.070953	5.2954	0.51673;
397.00	13.000	0.88279	0.15239	0.076197	5.5538	0.55491;
398.00	13.000	0.91916	0.17319	0.086594	5.8186	0.63063;
399.00	12.000	0.97943	0.20452	0.10226	6.2575	0.74471;
400.00	12.000	0.95171	0.21075	0.10537	6.0557	0.76740;
401.00	12.000	1.0420	0.23299	0.11650	6.7135	0.84840;
402.00	12.000	1.0423	0.22850	0.11425	6.7154	0.83205;
403.00	12.000	1.0791	0.25227	0.12614	6.9832	0.91861;
404.00	12.000	1.0928	0.23729	0.11864	7.0831	0.86404;
405.00	12.000	1.0088	0.26109	0.13055	6.4714	0.95071;
406.00	12.000	0.98980	0.25197	0.12598	6.3331	0.91749;
407.00	12.000	1.0879	0.25733	0.12866	7.0473	0.93700;
408.00	12.000	1.0753	0.25818	0.12909	6.9558	0.94010;
409.00	12.000	1.0967	0.24883	0.12441	7.1116	0.90606;
410.00	12.000	1.1369	0.23493	0.11747	7.4042	0.85546;
411.00	12.000	1.1600	0.23859	0.11929	7.5725	0.86876;
412.00	12.000	1.2170	0.25710	0.12855	7.9875	0.93616;
413.00	12.000	1.2726	0.25532	0.12766	8.3923	0.92968;
414.00	12.000	1.2763	0.24495	0.12247	8.4193	0.89193;
415.00	12.000	1.3204	0.26380	0.13190	8.7410	0.96058;
416.00	12.000	1.3519	0.25164	0.12582	8.9697	0.91630;
417.00	12.000	1.3032	0.27035	0.13518	8.6154	0.98444;
418.00	12.000	1.2985	0.26188	0.13094	8.5813	0.95360;
419.00	12.000	1.2044	0.25613	0.12807	7.8962	0.93265;
420.00	12.000	1.2761	0.22859	0.11429	8.4179	0.83235;
421.00	12.000	1.2896	0.27789	0.13895	8.5164	1.0119;
422.00	12.000	1.1997	0.25353	0.12677	7.8618	0.92319;
423.00	12.000	1.2279	0.25304	0.12652	8.0669	0.92141;
424.00	12.000	1.2499	0.19901	0.099504	8.2275	0.72465;
425.00	12.000	1.2386	0.20689	0.10344	8.1449	0.75334;
426.00	12.000	1.1913	0.18436	0.092180	7.8007	0.67131;
427.00	12.000	1.2065	0.18493	0.092464	7.9112	0.67338;
428.00	12.000	1.1080	0.14489	0.072443	7.1938	0.52757;
429.00	12.000	1.0656	0.16551	0.082754	6.8848	0.60267;
430.00	12.000	1.0250	0.19949	0.099744	6.5892	0.72640;
431.00	12.000	1.1127	0.20463	0.10231	7.2283	0.74510;
432.00	12.000	1.0733	0.18700	0.093499	6.9409	0.68091;
433.00	12.000	1.0335	0.18185	0.090924	6.6516	0.66217;
434.00	12.000	1.1311	0.23625	0.11812	7.3618	0.86024;
435.00	12.000	1.1703	0.26042	0.13021	7.6478	0.94827;
436.00	12.000	1.1578	0.28950	0.14475	7.5564	1.0542;
437.00	12.000	1.1230	0.22555	0.11278	7.3031	0.82130;
438.00	12.000	1.1387	0.22056	0.11028	7.4176	0.80313;
439.00	12.000	1.1084	0.21556	0.10778	7.1966	0.78490;
440.00	12.000	1.1150	0.24167	0.12084	7.2446	0.88000;
441.00	12.000	1.0579	0.18298	0.091489	6.8292	0.66628;
442.00	12.000	1.0818	0.24994	0.12497	7.0032	0.91011;
443.00	12.000	0.99417	0.24521	0.12261	6.3649	0.89290;
444.00	12.000	0.95956	0.21382	0.10691	6.1128	0.77857;
445.00	12.000	0.88759	0.18409	0.092045	5.5887	0.67033;
446.00	12.000	0.91979	0.18930	0.094651	5.8232	0.68931;
447.00	12.000	0.86323	0.20063	0.10031	5.4113	0.73054;
448.00	12.000	0.81125	0.16866	0.084329	5.0327	0.61413;
449.00	12.000	0.78715	0.16993	0.084967	4.8572	0.61878;
450.00	11.000	0.79191	0.19661	0.098305	4.8919	0.71591;
451.00	11.000	0.77496	0.19807	0.099034	4.7685	0.72122;
452.00	11.000	0.81743	0.17076	0.085379	5.0777	0.62178;
453.00	11.000	0.87199	0.17743	0.088717	5.4751	0.64609;
454.00	11.000	0.93689	0.25346	0.12673	5.9477	0.92291;
455.00	11.000	0.98663	0.28429	0.14215	6.3100	1.0352;
456.00	11.000	1.0151	0.27071	0.13535	6.5171	0.98573;
457.00	11.000	0.98359	0.29091	0.14545	6.2878	1.0593;
458.00	11.000	1.0348	0.32761	0.16381	6.6609	1.1929;
459.00	11.000	1.0426	0.32613	0.16306	6.7179	1.1875;
460.00	11.000	0.99931	0.32909	0.16454	6.4023	1.1983;
461.00	11.000	0.98197	0.33099	0.16549	6.2760	1.2052;
462.00	11.000	1.0120	0.30164	0.15082	6.4949	1.0983;
463.00	11.000	1.0511	0.27139	0.13570	6.7791	0.98821;
464.00	11.000	1.1163	0.28314	0.14157	7.2543	1.0310;
465.00	11.000	1.1501	0.31301	0.15651	7.5005	1.1398;
466.00	11.000	1.1297	0.31512	0.15756	7.3522	1.1474;
467.00	11.000	1.1223	0.29711	0.14856	7.2981	1.0819;
468.00	11.000	1.1322	0.30948	0.15474	7.3703	1.1269;
469.00	11.000	1.0710	0.32666	0.16333	6.9244	1.1895;
470.00	11.000	1.0480	0.31865	0.15933	6.7570	1.1603;
471.00	11.000	1.0033	0.30322	0.15161	6.4310	1.1041;
472.00	11.000	1.0086	0.28633	0.14317	6.4699	1.0426;
473.00	11.000	1.0148	0.23022	0.11511	6.5148	0.83830;
474.00	11.000	1.0301	0.19884	0.099421	6.6267	0.72404;
475.00	11.000	1.0512	0.21203	0.10601	6.7800	0.77205;
476.00	11.000	1.0689	0.27136	0.13568	6.9088	0.98811;
477.00	11.000	1.0697	0.27498	0.13749	6.9152	1.0013;
478.00	11.000	1.0882	0.30535	0.15268	7.0498	1.1119;
479.00	11.000	1.0673	0.30532	0.15266	6.8972	1.1118;
480.00	11.000	1.0194	0.28666	0.14333	6.5490	1.0438;
481.00	11.000	1.0189	0.24883	0.12442	6.5448	0.90608;
482.00	11.000	0.98130	0.21588	0.10794	6.2711	0.78607;
483.00	11.000	0.92132	0.19022	0.095112	5.8344	0.69266;
484.00	11.000	0.92153	0.15000	0.074999	5.8358	0.54619;
485.00	11.000	0.89744	0.17046	0.085230	5.6604	0.62070;
486.00	11.000	0.87720	0.17724	0.088620	5.5130	0.64538;
487.00	11.000	0.85283	0.18267	0.091336	5.3355	0.66516;
488.00	11.000	0.92340	0.15828	0.079141	5.8495	0.57635;
489.00	11.000	0.88716	0.18492	0.092458	5.5856	0.67333;
490.00	11.000	0.80580	0.21359	0.10679	4.9930	0.77774;
491.00	11.000	0.82016	0.20132	0.10066	5.0976	0.73305;
492.00	11.000	0.76582	0.22672	0.11336	4.7019	0.82555;
493.00	11.000	0.81328	0.21381	0.10691	5.0475	0.77855;
494.00	11.000	0.80012	0.20377	0.10188	4.9517	0.74199;
495.00	11.000	0.80147	0.21240	0.10620	4.9615	0.77341;
496.00	11.000	0.82703	0.21211	0.10605	5.1476	0.77234;
497.00	11.000	0.81166	0.21821	0.10911	5.0357	0.79457;
498.00	11.000	0.81260	0.21341	0.10670	5.0426	0.77708;
499.00	11.000	0.81549	0.21427	0.10713	5.0636	0.78022;
500.00	11.000	0.81403	0.22155	0.11077	5.0530	0.80673;
501.00	11.000	0.83200	0.20425	0.10212	5.1839	0.74372;
502.00	11.000	0.87619	0.18568	0.092841	5.5057	0.67612;
503.00	11.000	0.88491	0.17015	0.085077	5.5692	0.61958;
504.00	11.000	0.89453	0.16230	0.081149	5.6393	0.59098;
505.00	11.000	0.89689	0.14890	0.074448	5.6564	0.54217;
506.00	11.000	0.91673	0.12802	0.064009	5.8009	0.46615;
507.00	11.000	0.94412	0.21460	0.10730	6.0004	0.78144;
508.00	11.000	0.97269	0.24624	0.12312	6.2084	0.89662;
509.00	11.000	1.0032	0.18422	0.092112	6.4304	0.67082;
510.00	11.000	1.0030	0.17144	0.085722	6.4289	0.62428;
511.00	11.000	0.99728	0.18185	0.090926	6.3876	0.66218;
512.00	11.000	0.94841	0.18630	0.093151	6.0316	0.67838;
513.00	11.000	0.96796	0.21419	0.10710	6.1740	0.77994;
514.00	11.000	0.97460	0.22966	0.11483	6.2223	0.83626;
515.00	11.000	0.91888	0.25444	0.12722	5.8166	0.92648;
516.00	11.000	0.92880	0.24280	0.12140	5.8888	0.88411;
517.00	11.000	0.94857	0.24323	0.12161	6.0328	0.88567;
518.00	11.000	0.93571	0.25524	0.12762	5.9391	0.92941;
519.00	11.000	0.95256	0.25477	0.12739	6.0619	0.92771;
520.00	11.000	0.92881	0.25454	0.12727	5.8889	0.92684;
521.00	11.000	0.86789	0.21748	0.10874	5.4452	0.79193;
522.00	11.000	0.79991	0.20423	0.10211	4.9502	0.74365;
523.00	11.000	0.75760	0.18382	0.091910	4.6420	0.66934;
524.00	11.000	0.73806	0.17126	0.085629	4.4997	0.62360;
525.00	11.000	0.73608	0.16671	0.083357	4.4853	0.60706;
526.00	11.000	0.73003	0.17427	0.087135	4.4412	0.63457;
527.00	11.000	0.67142	0.16842	0.084208	4.0144	0.61325;
528.00	11.000	0.62761	0.17376	0.086881	3.6953	0.63272;
529.00	11.000	0.62344	0.17197	0.085985	3.6650	0.62620;
530.00	11.000	0.60582	0.15789	0.078945	3.5367	0.57493;
531.00	11.000	0.57847	0.15530	0.077650	3.3375	0.56549;
532.00	11.000	0.55874	0.14424	0.072122	3.1938	0.52523;
533.00	11.000	0.55605	0.14574	0.072870	3.1742	0.53068;
534.00	11.000	0.58406	0.14858	0.074290	3.3782	0.54102;
535.00	11.000	0.59682	0.14917	0.074585	3.4712	0.54318;
536.00	11.000	0.64009	0.12428	0.062139	3.7862	0.45253;
537.00	11.000	0.63374	0.12961	0.064806	3.7400	0.47196;
538.00	11.000	0.64328	0.14920	0.074601	3.8095	0.54329;
539.00	11.000	0.62977	0.17506	0.087532	3.7111	0.63746;
540.00	11.000	0.62012	0.16509	0.082546	3.6408	0.60115;
541.00	11.000	0.64682	0.13625	0.068124	3.8353	0.49612;
542.00	11.000	0.65324	0.13868	0.069340	3.8820	0.50497;
543.00	11.000	0.67507	0.14104	0.070522	4.0410	0.51359;
544.00	11.000	0.72599	0.15691	0.078456	4.4118	0.57136;
545.00	11.000	0.72212	0.16854	0.084271	4.3836	0.61371;
546.00	11.000	0.67655	0.13758	0.068791	4.0518	0.50098;
547.00	11.000	0.68476	0.14540	0.072700	4.1116	0.52945;
548.00	11.000	0.65079	0.13357	0.066783	3.8642	0.48636;
549.00	11.000	0.62148	0.12397	0.061983	3.6507	0.45140;
550.00	11.000	0.59827	0.10414	0.052069	3.4817	0.37920;
551.00	10.000	0.55326	0.11542	0.055201	3.1539	0.40201;
552.00	10.000	0.55019	0.14741	0.070499	3.1315	0.51342;
553.00	10.000	0.57606	0.15299	0.073168	3.3200	0.53285;
554.00	10.000	0.58587	0.15848	0.075797	3.3914	0.55200;
555.00	10.000	0.59950	0.19015	0.090939	3.4906	0.66227;
556.00	10.000	0.62595	0.16442	0.078636	3.6833	0.57267;
557.00	10.000	0.65591	0.17582	0.084089	3.9014	0.61239;
558.00	10.000	0.68562	0.16671	0.079733	4.1178	0.58066;
559.00	10.000	0.71361	0.20507	0.098079	4.3216	0.71427;
560.00	10.000	0.78440	0.32374	0.15483	4.8372	1.1276;
561.00	10.000	0.71119	0.26671	0.12756	4.3041	0.92893;
562.00	10.000	0.70374	0.23796	0.11381	4.2498	0.82880;
563.00	10.000	0.73182	0.23201	0.11096	4.4543	0.80807;
564.00	10.000	0.77157	0.23962	0.11460	4.7438	0.83457;
565.00	10.000	0.85062	0.31446	0.15039	5.3194	1.0953;
566.00	10.000	0.84010	0.29095	0.13915	5.2428	1.0134;
567.00	10.000	0.80250	0.24417	0.11678	4.9690	0.85044;
568.00	10.000	0.79727	0.23027	0.11013	4.9309	0.80202;
569.00	10.000	0.82219	0.23199	0.11095	5.1124	0.80800;
570.00	10.000	0.81923	0.22831	0.10919	5.0909	0.79518;
571.00	10.000	0.84598	0.23178	0.11085	5.2857	0.80729;
572.00	10.000	0.86699	0.24914	0.11916	5.4387	0.86776;
573.00	10.000	0.87077	0.25928	0.12400	5.4662	0.90307;
574.00	10.000	0.89862	0.27325	0.13069	5.6690	0.95173;
575.00	10.000	0.92229	0.27506	0.13155	5.8414	0.95804;
576.00	10.000	0.91749	0.26156	0.12509	5.8064	0.91100;
577.00	10.000	0.90800	0.23797	0.11381	5.7373	0.82884;
578.00	10.000	0.90547	0.23775	0.11371	5.7189	0.82809;
579.00	10.000	0.89205	0.23897	0.11429	5.6212	0.83232;
580.00	10.000	0.85661	0.24744	0.11834	5.3630	0.86183;
581.00	10.000	0.81211	0.21828	0.10439	5.0390	0.76026;
582.00	10.000	0.74809	0.20135	0.096296	4.5727	0.70128;
583.00	10.000	0.74111	0.20829	0.099618	4.5219	0.72548;
584.00	10.000	0.71241	0.16707	0.079904	4.3129	0.58191;
585.00	10.000	0.70842	0.14463	0.069172	4.2839	0.50375;
586.00	10.000	0.67920	0.16898	0.080815	4.0711	0.58854;
587.00	10.000	0.62708	0.17307	0.082775	3.6915	0.60281;
588.00	10.000	0.59616	0.18620	0.089050	3.4663	0.64852;
589.00	10.000	0.60693	0.16683	0.079788	3.5447	0.58106;
590.00	10.000	0.61827	0.15880	0.075950	3.6273	0.55311;
591.00	10.000	0.63903	0.16324	0.078072	3.7786	0.56857;
592.00	10.000	0.67161	0.17433	0.083376	4.0158	0.60720;
593.00	10.000	0.75034	0.17449	0.083452	4.5891	0.60775;
594.00	10.000	0.79595	0.18667	0.089279	4.9213	0.65018;
595.00	10.000	0.83070	0.21272	0.10174	5.1744	0.74090;
596.00	10.000	0.83650	0.23236	0.11113	5.2166	0.80932;
597.00	10.000	0.85458	0.22122	0.10580	5.3483	0.77049;
598.00	10.000	0.87785	0.19511	0.093311	5.5177	0.67955;
599.00	10.000	0.94399	0.19816	0.094773	5.9994	0.69020;
600.00	10.000	1.0123	0.22973	0.10987	6.4966	0.80016;
601.00	10.000	1.0435	0.24576	0.11754	6.7240	0.85597;
602.00	10.000	1.0818	0.27315	0.13064	7.0030	0.95138;
603.00	10.000	1.0993	0.28081	0.13430	7.1308	0.97805;
604.00	10.000	1.0938	0.27824	0.13307	7.0905	0.96912;
605.00	10.000	1.0882	0.25822	0.12350	7.0498	0.89939;
606.00	10.000	1.0994	0.27284	0.13049	7.1313	0.95030;
607.00	10.000	1.1424	0.30686	0.14676	7.4447	1.0688;
608.00	10.000	1.1858	0.36172	0.17299	7.7602	1.2598;
609.00	10.000	1.1835	0.35806	0.17125	7.7439	1.2471;
610.00	10.000	1.1186	0.36048	0.17240	7.2709	1.2555;
611.00	10.000	1.0976	0.35405	0.16933	7.1181	1.2331;
612.00	10.000	1.0723	0.31954	0.15282	6.9341	1.1129;
613.00	10.000	1.0704	0.29349	0.14037	6.9199	1.0222;
614.00	10.000	1.0985	0.30464	0.14570	7.1249	1.0610;
615.00	10.000	1.1124	0.32624	0.15603	7.2260	1.1363;
616.00	10.000	0.97803	0.28832	0.13789	6.2473	1.0042;
617.00	10.000	0.93975	0.29288	0.14007	5.9685	1.0201;
618.00	10.000	0.93983	0.27268	0.13041	5.9691	0.94974;
619.00	10.000	0.92998	0.23251	0.11120	5.8974	0.80983;
620.00	10.000	0.93402	0.21350	0.10211	5.9268	0.74363;
621.00	10.000	0.91597	0.22524	0.10772	5.7953	0.78451;
622.00	10.000	0.95212	0.25237	0.12070	6.0586	0.87901;
623.00	10.000	0.93704	0.25666	0.12275	5.9488	0.89394;
624.00	10.000	0.93214	0.25291	0.12096	5.9132	0.88087;
625.00	10.000	0.93290	0.23266	0.11127	5.9187	0.81034;
626.00	10.000	0.89435	0.23323	0.11155	5.6379	0.81234;
627.00	10.000	0.88100	0.24165	0.11557	5.5407	0.84165;
628.00	10.000	0.88905	0.26464	0.12657	5.5993	0.92173;
629.00	10.000	0.96006	0.27198	0.13008	6.1164	0.94729;
630.00	10.000	1.0473	0.29086	0.13911	6.7521	1.0131;
631.00	10.000	1.0414	0.27593	0.13197	6.7089	0.96106;
632.00	10.000	1.0909	0.29069	0.13903	7.0690	1.0125;
633.00	10.000	1.1489	0.31456	0.15044	7.4914	1.0956;
634.00	10.000	1.1552	0.30880	0.14769	7.5376	1.0755;
635.00	10.000	1.2364	0.34730	0.16610	8.1286	1.2096;
636.00	10.000	1.3278	0.37569	0.17968	8.7945	1.3085;
637.00	10.000	1.3764	0.39559	0.18920	9.1482	1.3778;
638.00	10.000	1.3887	0.37865	0.18109	9.2381	1.3188;
639.00	10.000	1.4301	0.39496	0.18889	9.5393	1.3756;
640.00	10.000	1.4168	0.34244	0.16377	9.4426	1.1927;
641.00	10.000	1.3911	0.32701	0.15639	9.2558	1.1390;
642.00	10.000	1.3645	0.35896	0.17168	9.0618	1.2503;
643.00	10.000	1.2759	0.35845	0.17143	8.4163	1.2485;
644.00	10.000	1.1713	0.32994	0.15780	7.6547	1.1492;
645.00	10.000	1.3119	0.37139	0.17762	8.6786	1.2936;
646.00	10.000	1.3269	0.37555	0.17961	8.7879	1.3080;
647.00	10.000	1.2911	0.36299	0.17361	8.5272	1.2643;
648.00	10.000	1.2113	0.35254	0.16861	7.9463	1.2279;
649.00	10.000	1.1733	0.37086	0.17737	7.6695	1.2917;
650.00	10.000	1.1624	0.34805	0.16646	7.5903	1.2123;
651.00	10.000	1.2340	0.32927	0.15748	8.1116	1.1469;
652.00	10.000	1.2390	0.36403	0.17410	8.1481	1.2679;
653.00	10.000	1.1391	0.36888	0.17642	7.4206	1.2848;
654.00	10.000	1.1298	0.36294	0.17358	7.3528	1.2641;
655.00	10.000	1.2197	0.39025	0.18664	8.0071	1.3592;
656.00	10.000	1.2217	0.38079	0.18211	8.0220	1.3263;
657.00	10.000	1.2055	0.36382	0.17400	7.9036	1.2672;
658.00	10.000	1.2434	0.36656	0.17531	8.1802	1.2767;
659.00	10.000	1.2409	0.36668	0.17537	8.1620	1.2771;
660.00	10.000	1.2675	0.38746	0.18531	8.3558	1.3495;
661.00	10.000	1.2343	0.39309	0.18800	8.1135	1.3691;
662.00	10.000	1.1925	0.39755	0.19013	7.8095	1.3847;
663.00	10.000	1.1531	0.40568	0.19402	7.5221	1.4130;
664.00	10.000	1.1392	0.39859	0.19063	7.4214	1.3883;
665.00	10.000	1.0448	0.39456	0.18870	6.7336	1.3742;
666.00	10.000	0.98287	0.38881	0.18595	6.2826	1.3542;
667.00	10.000	0.94262	0.35758	0.17102	5.9895	1.2455;
668.00	10.000	0.96089	0.40227	0.19239	6.1225	1.4011;
669.00	9.0000	0.94401	0.44175	0.21127	5.9996	1.5386;
670.00	9.0000	0.88384	0.38447	0.18388	5.5614	1.3391;
671.00	9.0000	0.82588	0.32496	0.15542	5.1393	1.1318;
672.00	9.0000	0.77386	0.29040	0.13889	4.7604	1.0115;
673.00	9.0000	0.77117	0.22257	0.10645	4.7408	0.77522;
674.00	9.0000	0.77861	0.20617	0.098601	4.7950	0.71807;
675.00	9.0000	0.72534	0.19484	0.093182	4.4071	0.67861;
676.00	9.0000	0.65968	0.19594	0.093709	3.9289	0.68244;
677.00	9.0000	0.69146	0.20318	0.097175	4.1604	0.70769;
678.00	9.0000	0.66620	0.20200	0.096608	3.9764	0.70356;
679.00	9.0000	0.69578	0.24495	0.11715	4.1918	0.85316;
680.00	9.0000	0.66902	0.23628	0.11300	3.9969	0.82295;
681.00	9.0000	0.65845	0.22979	0.10990	3.9199	0.80037;
682.00	9.0000	0.66431	0.22804	0.10906	3.9626	0.79427;
683.00	9.0000	0.69906	0.22235	0.10634	4.2157	0.77446;
684.00	9.0000	0.73885	0.20247	0.096834	4.5055	0.70520;
685.00	9.0000	0.76464	0.20211	0.096662	4.6933	0.70395;
686.00	9.0000	0.78315	0.20562	0.098341	4.8281	0.71618;
687.00	9.0000	0.83729	0.22606	0.10812	5.2224	0.78737;
688.00	9.0000	0.93330	0.15007	0.071772	5.9216	0.52269;
689.00	9.0000	0.96067	0.20229	0.096747	6.1209	0.70457;
690.00	9.0000	0.99519	0.21937	0.10492	6.3723	0.76408;
691.00	9.0000	0.94894	0.17215	0.082331	6.0355	0.59958;
692.00	9.0000	0.92252	0.18454	0.088258	5.8431	0.64275;
693.00	9.0000	0.88068	0.18654	0.089215	5.5384	0.64972;
694.00	9.0000	0.80083	0.16002	0.076530	4.9569	0.55734;
695.00	9.0000	0.76994	0.14293	0.068356	4.7319	0.49781;
696.00	9.0000	0.69548	0.11657	0.055752	4.1896	0.40602;
697.00	9.0000	0.64569	0.13207	0.063164	3.8270	0.46000;
698.00	9.0000	0.68145	0.13307	0.063642	4.0875	0.46348;
699.00	9.0000	0.71734	0.12565	0.060093	4.3488	0.43763;
700.00	8.0000	0.73833	0.14325	0.065656	4.5017	0.47815;
701.00	8.0000	0.73975	0.18842	0.086357	4.5120	0.62890;
702.00	8.0000	0.81928	0.20308	0.093077	5.0912	0.67785;
703.00	8.0000	0.82270	0.20018	0.091751	5.1161	0.66819;
704.00	8.0000	0.82759	0.21569	0.098860	5.1517	0.71996;
705.00	8.0000	0.86041	0.21243	0.097362	5.3907	0.70905;
706.00	8.0000	0.89557	0.22875	0.10485	5.6468	0.76355;
707.00	8.0000	0.92069	0.25109	0.11508	5.8297	0.83811;
708.00	8.0000	0.93412	0.25701	0.11780	5.9276	0.85785;
709.00	8.0000	0.94474	0.27529	0.12618	6.0049	0.91889;
710.00	8.0000	0.97170	0.30295	0.13885	6.2012	1.0112;
711.00	8.0000	1.0038	0.33539	0.15372	6.4353	1.1195;
712.00	8.0000	1.1018	0.31716	0.14537	7.1490	1.0586;
713.00	8.0000	1.1642	0.33439	0.15326	7.6028	1.1162;
714.00	8.0000	1.2651	0.36467	0.16714	8.3377	1.2172;
715.00	8.0000	1.3754	0.38580	0.17682	9.1414	1.2877;
716.00	8.0000	1.3370	0.27316	0.12520	8.8619	0.91176;
717.00	8.0000	1.3541	0.24110	0.11051	8.9863	0.80476;
718.00	8.0000	1.3244	0.20990	0.096206	8.7695	0.70063;
719.00	8.0000	1.2211	0.24203	0.11093	8.0175	0.80787;
720.00	8.0000	1.1781	0.26506	0.12149	7.7042	0.88474;
721.00	8.0000	1.1797	0.28552	0.13086	7.7157	0.95301;
722.00	8.0000	1.1628	0.28172	0.12912	7.5929	0.94033;
723.00	8.0000	1.1725	0.26393	0.12097	7.6635	0.88095;
724.00	8.0000	1.0589	0.32666	0.14972	6.8362	1.0903;
725.00	8.0000	0.98417	0.34550	0.15836	6.2921	1.1532;
726.00	7.0000	0.92234	0.39005	0.17877	5.8417	1.3019;
727.00	7.0000	0.89950	0.31835	0.14591	5.6754	1.0626;
728.00	7.0000	0.86570	0.38505	0.17648	5.4293	1.2852;
729.00	7.0000	1.1222	0.40887	0.18740	7.2976	1.3648;
730.00	7.0000	1.1284	0.36102	0.16547	7.3426	1.2050;
731.00	7.0000	1.1917	0.40852	0.18724	7.8035	1.3636;
732.00	7.0000	1.2032	0.35610	0.16321	7.8871	1.1886;
733.00	7.0000	1.2066	0.31416	0.14399	7.9118	1.0486;
734.00	7.0000	1.2344	0.33817	0.15499	8.1145	1.1288;
735.00	7.0000	1.3197	0.33153	0.15195	8.7353	1.1066;
736.00	7.0000	1.2835	0.28887	0.13240	8.4721	0.96419;
737.00	7.0000	1.2382	0.25959	0.11898	8.1423	0.86647;
738.00	7.0000	1.2365	0.28244	0.12945	8.1297	0.94274;
739.00	7.0000	1.1575	0.23333	0.10694	7.5543	0.77883;
740.00	7.0000	1.1654	0.23800	0.10908	7.6122	0.79440;
741.00	7.0000	1.2150	0.28008	0.12837	7.9728	0.93486;
742.00	7.0000	1.2630	0.32954	0.15104	8.3229	1.1000;
743.00	7.0000	1.2824	0.34807	0.15953	8.4642	1.1618;
744.00	7.0000	1.3066	0.36594	0.16772	8.6400	1.2215;
745.00	7.0000	1.3398	0.41016	0.18799	8.8818	1.3691;
746.00	7.0000	1.2005	0.35785	0.16402	7.8674	1.1945;
747.00	7.0000	1.2949	0.32564	0.14925	8.5550	1.0869;
748.00	7.0000	1.3208	0.28533	0.13078	8.7434	0.95241;
749.00	7.0000	1.3577	0.29368	0.13461	9.0123	0.98028;
750.00	7.0000	1.3131	0.30930	0.14176	8.6875	1.0324;
751.00	7.0000	1.3864	0.36982	0.16950	9.2212	1.2344;
752.00	7.0000	1.3584	0.35496	0.16269	9.0177	1.1848;
753.00	7.0000	1.2620	0.35821	0.16418	8.3153	1.1956;
754.00	7.0000	1.3081	0.30026	0.13762	8.6512	1.0022;
755.00	7.0000	1.2276	0.26214	0.12015	8.0647	0.87500;
756.00	7.0000	1.2237	0.28041	0.12852	8.0363	0.93596;
757.00	7.0000	1.2369	0.28058	0.12860	8.1325	0.93654;
758.00	7.0000	1.3092	0.34195	0.15673	8.6588	1.1414;
759.00	7.0000	1.3224	0.45086	0.20665	8.7550	1.5049;
760.00	7.0000	1.3520	0.52133	0.23894	8.9706	1.7401;
761.00	7.0000	1.3651	0.56135	0.25728	9.0662	1.8737;
762.00	7.0000	1.2557	0.45812	0.20997	8.2693	1.5291;
763.00	7.0000	1.1984	0.39815	0.18249	7.8522	1.3290;
764.00	7.0000	1.1544	0.37720	0.17288	7.5318	1.2591;
765.00	7.0000	1.1226	0.38550	0.17669	7.3001	1.2867;
766.00	7.0000	1.0891	0.35649	0.16339	7.0562	1.1899;
767.00	7.0000	1.0267	0.32601	0.14942	6.6015	1.0882;
768.00	7.0000	0.97014	0.29719	0.13621	6.1899	0.99198;
769.00	7.0000	0.91019	0.28136	0.12896	5.7532	0.93915;
770.00	7.0000	0.84508	0.28439	0.13035	5.2791	0.94927;
771.00	7.0000	0.77494	0.30245	0.13863	4.7683	1.0096;
772.00	7.0000	0.67697	0.31788	0.14570	4.0549	1.0610;
773.00	7.0000	0.62164	0.30182	0.13833	3.6519	1.0074;
774.00	7.0000	0.55167	0.28787	0.13194	3.1423	0.96087;
775.00	7.0000	0.50546	0.24303	0.11139	2.8058	0.81119;
776.00	7.0000	0.44735	0.25294	0.11593	2.3826	0.84429;
777.00	7.0000	0.36815	0.22073	0.10117	1.8059	0.73676;
778.00	7.0000	0.24349	0.15423	0.070690	0.89794	0.51481;
779.00	7.0000	0.22596	0.15933	0.073026	0.77030	0.53182;
780.00	7.0000	0.25709	0.15961	0.073155	0.99699	0.53276;
781.00	6.0000	0.35671	0.18280	0.084371	1.7225	0.61444;
782.00	6.0000	0.39077	0.14026	0.064736	1.9705	0.47144;
783.00	6.0000	0.42091	0.13275	0.061270	2.1901	0.44620;
784.00	6.0000	0.38159	0.13420	0.061937	1.9037	0.45106;
785.00	6.0000	0.34306	0.17802	0.082165	1.6231	0.59838;
786.00	6.0000	0.34237	0.16210	0.074813	1.6180	0.54483;
787.00	6.0000	0.38357	0.12378	0.057129	1.9181	0.41605;
788.00	6.0000	0.41954	0.10122	0.046716	2.1800	0.34021;
789.00	6.0000	0.44306	0.11022	0.050869	2.3513	0.37046;
790.00	6.0000	0.47810	0.11777	0.054354	2.6066	0.39584;
791.00	6.0000	0.56040	0.14330	0.066138	3.2059	0.48166;
792.00	6.0000	0.63244	0.17733	0.081847	3.7305	0.59606;
793.00	6.0000	0.65396	0.20802	0.096011	3.8873	0.69921;
794.00	6.0000	0.69418	0.24556	0.11333	4.1802	0.82537;
795.00	6.0000	0.59681	0.19585	0.090394	3.4711	0.65830;
796.00	6.0000	0.48475	0.24223	0.11180	2.6549	0.81419;
797.00	6.0000	0.41715	0.26318	0.12147	2.1627	0.88462;
798.00	6.0000	0.39315	0.26257	0.12118	1.9879	0.88253;
799.00	6.0000	0.45012	0.19172	0.088486	2.4028	0.64441;
800.00	6.0000	0.53966	0.15269	0.070475	3.0548	0.51324];

tim=sint800(:,1)./1000; % put into million year units
num_cores=sint800(:,2);
relint800=sint800(:,3);
stderr=sint800(:,4);
vadm=sint800(:,6);
vadm800err=sint800(:,7);
vv=[vadm+vadm800err;flipud(vadm-vadm800err)];
vt=[tim;flipud(tim)];

